Delta_TP9,Delta_AF7,Delta_AF8,Delta_TP10,Theta_TP9,Theta_AF7,Theta_AF8,Theta_TP10,Alpha_TP9,Alpha_AF7,Alpha_AF8,Alpha_TP10,Beta_TP9,Beta_AF7,Beta_AF8,Beta_TP10,Gamma_TP9,Gamma_AF7,Gamma_AF8,Gamma_TP10,RAW_TP9,RAW_AF7,RAW_AF8,RAW_TP10
-0.0016715446089233582,-0.00011753048031492363,-0.0001003906186023306,-0.0016715446089233582,-0.0051232059674179,-0.00036022541958407103,-0.00030769254589472735,-0.0051232059674179,-0.017501083106927443,-0.001230544905955836,-0.0010510904405039432,-0.017501083106927443,-1.1590249320037274,-0.08149394053151207,-0.06960940753733323,-1.1590249320037274,-0.5770974714460759,-0.040577165961052215,-0.0346596625917321,-0.5770974714460759,-1000.0,-70.3125,-60.05859375,-1000.0
-0.014359713820168039,-0.001025895409252347,-0.0008530584288361792,-0.014051196309341363,-0.043349561714466286,-0.003097754214127049,-0.0025748080088330806,-0.0424039699880581,-0.1437896369669352,-0.010280116443945619,-0.008537743510347114,-0.14055945658880115,-7.9946629973115675,-0.5733770249114849,-0.4736541134709724,-7.780741403416348,-3.0173452276428256,-0.21775978203103188,-0.17798399079982857,-2.9108301669950634,-792.48046875,-65.4296875,-41.9921875,-607.91015625
-0.05949967639031398,-0.004493997812872288,-0.003616258117412279,-0.05676160678104462,-0.17574877108744966,-0.01330234935849464,-0.01069008799958956,-0.16747895478625494,-0.5580352635129087,-0.04242337056484312,-0.033999575063649555,-0.5305778216943984,-23.593146581447517,-1.855089198379931,-1.4576361288245816,-22.056764250677325,-4.55881756750448,-0.40887871694415323,-0.2994415030067031,-3.9716294700942134,779.78515625,-55.17578125,-22.4609375,978.515625
-0.16238852833497416,-0.013505316778994532,-0.01048169535130915,-0.15056956279975034,-0.46506786055799354,-0.03896580576706556,-0.03015350095958122,-0.43009895324326514,-1.3839179910677883,-0.11786039509539536,-0.0906277685873957,-1.2725008690202213,-36.47944498685348,-3.640085828147519,-2.6505810231913762,-31.647362055906612,4.4414001402668015,-0.054687712941938,0.06861548558026172,5.470033630735658,543.45703125,-59.5703125,-32.2265625,491.2109375
-0.3393600726516025,-0.0319691695766226,-0.023966211464310026,-0.3054475307188689,-0.9319704200245924,-0.08936975757281156,-0.06665364055541936,-0.8344356514896524,-2.524641498368462,-0.2525312397835702,-0.18612984641642696,-2.2316895917119495,-23.070517362227122,-4.650318963744186,-2.991255513013217,-14.6302036424354,23.480285841762264,1.1214937450661904,1.016076662995378,23.085228065436848,-958.0078125,-58.59375,-51.26953125,-1000.0
-0.6003948727611409,-0.06436140624137102,-0.04691959977543942,-0.5256654634573575,-1.5639575800861585,-0.17325434367126952,-0.12537114405672464,-1.3569606428654537,-3.7253520672180955,-0.4495143275114753,-0.3194532197139634,-3.152994574531887,23.277813846126026,-3.3301923745623863,-1.5815080016437273,30.92638250384653,23.984489953175032,2.0949785504598233,1.4874321716671166,19.73545732822713,-1000.0,-34.66796875,-48.33984375,-1000.0
-0.9621523692484752,-0.11529345226743468,-0.08253676785977294,-0.8238371219186982,-2.357705311298791,-0.29689069150672487,-0.21066082256532567,-1.992358087145482,-4.767238035562407,-0.6926466781854554,-0.4803102235485449,-3.8643629482864448,74.82576374276354,1.0333169290629873,1.4940758657948057,73.90501839834292,-19.60207304730754,1.1582619121492117,0.2176727661870229,-25.59235140891843,145.5078125,-16.11328125,-23.92578125,341.30859375
-1.4479807817558779,-0.18896570585340142,-0.1341255510929187,-1.2197272947854358,-3.318064322624311,-0.4620483487717408,-0.32503614531771663,-2.748528174436654,-5.490534753181224,-0.943127545527357,-0.6476687822063336,-4.2757257561630215,94.98478313848626,7.620581248187771,5.224282063946289,80.53294215971485,-72.50265001167865,-1.8975470332008162,-2.2418813082337716,-71.97998930907988,951.171875,-15.625,-16.11328125,959.9609375
-2.074141928334548,-0.2887651910957045,-0.20474155094135865,-1.72559066337985,-4.414164677176791,-0.6647910118817246,-0.4679048430934603,-3.59962932258744,-5.661264257679968,-1.1426464891215344,-0.7891370151824466,-4.223589605626569,74.33857473620688,14.066556372041273,8.23550094094637,49.24990807753702,-56.86737469571377,-4.729520018546918,-3.3805841619831876,-44.302088857609895,-474.12109375,-38.0859375,-52.734375,-495.60546875
-2.8450077981238078,-0.4172616946222976,-0.2971115630443149,-2.3422842771330608,-5.567991804429989,-0.8959083812525286,-0.635446190221351,-4.477219004062049,-4.974676134875842,-1.224914669306548,-0.8661152327405578,-3.4731987130044133,29.846198029661924,17.15919158973401,9.185262736000663,3.7221831014327806,42.94571143628739,-4.278658966293036,-1.4106031461794415,59.25658272340585,-1000.0,-52.734375,-56.15234375,-1000.0
-3.7637724840168825,-0.5765069779502565,-0.4138183690603837,-3.0710555328729674,-6.69427496323242,-1.1425671788556977,-0.8214855748378275,-5.312771720212294,-3.247467432388837,-1.1318991471135762,-0.8430502779937102,-1.9092990553908256,-21.606948624870864,14.2373090177739,7.134191920782081,-37.983278466474694,128.48390620161655,0.14904066701205407,2.3739487270819692,130.22778705073117,-189.94140625,-58.10546875,-29.78515625,-129.8828125
-4.841264290856083,-0.7682940824990643,-0.5572426260363998,-3.922201259566061,-7.73253602918877,-1.3899559269826434,-1.0177057774585363,-6.067970646499382,-0.5508362335432337,-0.8279214849858741,-0.6934811710088142,0.3476750812318573,-72.7348083361937,4.8326821748218824,2.2433172255528877,-72.43401091438534,89.32516570432382,5.740223247105326,4.689444457443323,68.01034414868586,-843.26171875,-42.96875,-4.8828125,-826.66015625
-6.094351363785956,-0.9941342432646662,-0.7291392510607839,-4.913000467708958,-8.643668385336952,-1.6220867823903218,-1.2128546628823598,-6.728299730785907,2.8246665262540187,-0.3069910785145687,-0.4012040239241323,2.9944446165621383,-114.94748684539435,-8.439687155044524,-3.8300644995381172,-97.25275156587148,-54.75977343788403,8.17988811905306,3.502433120919262,-83.87915341146334,135.7421875,-33.69140625,-19.04296875,118.65234375
-7.541274784965237,-1.255039956119543,-0.9303569656599523,-6.0631832164577,-9.3960340870027,-1.8220426059310555,-1.3926343939182104,-7.288020897774149,6.467180082110114,0.4060885822818012,0.037359523408550456,5.648162276302842,-132.56967040084032,-20.640542249272677,-8.718609931359593,-102.88638028841446,-158.14085640262485,5.0131727896093,-0.33262096873067315,-167.30440823558192,-1000.0,-51.7578125,-57.6171875,-1000.0
-9.199976892671952,-1.5514104197816787,-1.1610802512777214,-7.393449697054149,-9.961302943772855,-1.9726136622082784,-1.5414128335304391,-7.7449939186654015,9.916501106542608,1.257318064661562,0.6061783922206494,7.918409473255933,-111.65199617259258,-26.809701524940163,-10.884395509105294,-79.20255467029911,-107.29414103558341,-2.358011354645117,-4.201607914623728,-83.7468375768901,-319.3359375,-52.734375,-62.01171875,-249.51171875
-11.089263190982024,-1.883081138662831,-1.4212910022658318,-8.926193171751617,-10.319237595010323,-2.057464910186382,-1.6446173141063853,-8.102478249066367,12.708197882508118,2.167087146049841,1.2634838538755129,9.451585640262511,-52.567182957774776,-24.427351154592298,-10.413265186014746,-26.455083857799565,50.00195980665553,-9.302650559185365,-5.618960857096733,88.8983717632304,-842.28515625,-36.62109375,-49.31640625,-815.4296875
-13.22813114268174,-2.249329948974561,-1.7109285778573637,-10.684287162803464,-10.456263732901084,-2.0621037336235877,-1.6900271526645485,-8.36466678850668,14.438927866714511,3.037889440509607,1.9436237018294293,9.990564799327888,27.907862331007966,-14.483143491364647,-8.370139345402515,42.17151318381439,154.17765293541615,-10.76015561700219,-3.351078633739989,174.95095403407473,291.50390625,-50.78125,-41.50390625,291.50390625
-15.631564796158242,-2.6488757206610916,-2.0297243938776504,-12.686964812438914,-10.35310446363857,-1.9747226716230306,-1.6678888961930578,-8.523649085024456,14.859204735114213,3.7648143931075615,2.5664176344670664,9.4483771238749,105.43629063797648,-0.842810818737953,-5.647007231409476,106.88385149174245,104.17529414357753,-4.834106170852745,1.806922469474694,87.54139710872474,-1000.0,-78.61328125,-53.7109375,-1000.0
-18.309243963099032,-3.0800851712000155,-2.377041697484944,-14.948549189309112,-9.982755003350327,-1.7875416565960627,-1.5709449477232063,-8.55684845142315,13.905671492589846,4.24531545958229,3.048524352809876,7.919028197752484,155.74785868659396,11.449937991300057,-2.4981081571654062,146.85860758106077,-42.31733329875552,5.1485840704410935,6.6628233616459305,-83.32238169966143,-825.1953125,-74.21875,-44.921875,-609.375
-21.267652196281002,-3.541205805458781,-2.7517625544813544,-17.479285891393225,-9.319780905615136,-1.4979800096836478,-1.3945158842848644,-8.43215873593833,11.670651185498047,4.389576665721506,3.3148005836061216,5.638860504266242,160.8084092236345,18.330230817666585,1.1827449277050763,146.40058465847008,-136.5909708478745,12.4044772363657,7.18534663305231,-167.34854763038533,749.0234375,-46.875,-6.34765625,969.23828125
-24.503981859504357,-4.030230528470856,-3.15200121280143,-20.27761827105333,-8.32406897013233,-1.10838522750408,-1.135955280536714,-8.087303939799384,8.444818301863396,4.13456227319332,3.3105886269897637,3.0221627214474833,121.78391717489677,18.544072785356317,5.443954853345927,107.7942488794971,-88.38738091308663,11.651308604913448,1.9779679678985242,-83.21769671647621,664.55078125,-23.92578125,-7.32421875,672.8515625
-27.994986995726794,-4.544455775918028,-3.5748257455497217,-23.31949092536649,-6.911382430686983,-0.6246138774817096,-0.79411136832304,-7.403558649627367,4.776139722749493,3.4584954049988097,3.011052280256076,0.6881565945758273,62.07286068333584,13.994789200114415,9.837574034147663,52.40979733853468,48.847332681214816,3.1781364670600905,-5.629412866063143,83.36354643297928,-854.98046875,-36.62109375,-57.6171875,-851.07421875
-31.70040662991839,-5.080192639955634,-4.016491961850092,-26.56403535374723,-4.973688611868364,-0.0550314549455727,-0.37037457350497005,-6.235322991738701,1.3171935222789355,2.3882135386623413,2.421116627185307,-0.7364971015891518,3.5264513418811605,8.175775395390286,12.980530416299471,-3.4742087142016187,128.9984740806961,-7.478208036647486,-9.765685805127665,160.4004511617275,-1000.0,-40.0390625,-75.1953125,-1000.0
-35.57823535600092,-5.6327972611971555,-4.4730374152323185,-29.969992855223257,-2.4365300030990236,0.5895301074136534,0.1293274085423753,-4.472914626433555,-1.4559945949908801,0.9969118698245604,1.5689970169589185,-0.9145022500827887,-53.70895384374212,3.8744173132470445,12.907896879504666,-64.52302992644319,61.90895978929947,-13.552271670067533,-6.7681145657866715,63.55667122816694,24.90234375,-17.578125,-25.87890625,278.3203125
-39.591444395808125,-6.196753239889425,-4.940443753805364,-33.50140138990739,0.7151217884823261,1.2957473738506236,0.6942119914573498,-2.066640399941489,-3.367896694813508,-0.6038764441330537,0.5036336444251762,0.10352193191950568,-117.3383480401376,1.8660146318709057,8.636556706326159,-137.23023417383527,-81.16896189136354,-11.29916057126912,1.8441572813422715,-104.47486577821127,-913.57421875,-25.390625,-2.44140625,-883.30078125
-43.70526649733909,-6.765745088217313,-5.414273829689287,-37.123964872236236,4.44494757948193,2.0479217572967405,1.3102154740098275,0.9825950371707232,-4.4997621331207,-2.276217326676986,-0.7035523464687184,1.9564197197771984,-179.07018987099536,1.0832889750274504,1.4637938040746787,-206.4333697110655,-135.24844649241473,-2.0262037638318695,10.181158790166581,-155.25901242888708,-193.359375,-55.6640625,-58.10546875,-199.21875
-47.88596518590866,-7.332972978708965,-5.889623587117236,-40.80482318730314,8.671172881293185,2.827471706303031,1.9606756747331753,4.624411364178172,-5.12444752803875,-3.8728194356803303,-1.9631850655655276,4.055967586572147,-212.9725775499736,-0.37474871813409444,-5.736134010453461,-239.57190005334712,-27.005487902341624,8.643155018589015,11.663654363239077,-24.70425112936456,-1000.0,-62.5,-83.49609375,-1000.0
-52.1019707379199,-7.891627176707123,-6.361595054684756,-44.514972831330695,13.26737182379332,3.61214345134366,2.625519303837704,8.754571006102251,-5.640946464473672,-5.255747811646591,-3.180035603364243,5.674811321509701,-192.63187991139523,-3.915798313731008,-10.426000124862034,-208.46494397925915,132.12888576953134,14.037064692314418,3.9413384884308846,146.87462480913067,-250.48828125,-48.33984375,-14.6484375,-164.55078125
-56.32414645081252,-8.435123495414661,-6.825349146611757,-48.22937548871033,18.06848237720548,4.376254434782581,3.2820073010723956,13.221027232295542,-6.481843160263973,-6.310066032240124,-4.260252641479398,6.082606013259199,-109.41591168380742,-9.26250668630331,-11.315482527130472,-107.37305037635953,160.619225615188,10.749092709795313,-7.904093287581046,164.30472930452137,-847.65625,-38.57421875,43.9453125,-816.40625
-60.52406712668017,-8.957037457636485,-7.275421694824574,-51.92457971761088,22.884897006254707,5.092104601864325,3.9078848598632208,17.840029427105037,-7.998447573640592,-6.95094698215917,-5.110673418082737,4.707293845286353,19.82574838900774,-14.24551780148821,-8.156172986405402,41.55108950946053,8.033437862817149,0.9851621860793873,-14.165293917607695,-6.462560792549718,196.77734375,-49.31640625,-24.90234375,190.4296875
-64.67103622418499,-9.451066288570072,-7.705475593445346,-55.57578513109176,27.5211577025991,5.731407009461746,4.4830057388268605,22.41486265483714,-10.353031068787194,-7.128105358035137,-5.644904958864414,1.2722336210758496,158.012209418456,-16.031210124273194,-2.06139224139834,195.31823968005966,-179.4853214384788,-9.063643301597002,-9.13753451330024,-194.20416460262877,-1000.0,-63.96484375,-104.00390625,-1000.0
-68.7319048515921,-9.911190900585286,-8.109190291609048,-59.156738388771764,31.785484744375136,6.266141620848005,4.9872914001973445,26.74563866862878,-13.479562453167791,-6.8293416706099555,-5.802278157067001,-4.147234781610434,259.93866965024097,-12.966044160750549,3.956358118123689,304.16240546933824,-206.30570283693427,-13.44290456907114,2.8051628512798605,-199.71970214535432,-558.10546875,-53.22265625,-64.94140625,-389.6484375
-72.67528303971866,-10.331793490799166,-8.481165867934429,-62.642926427533205,35.48541579334855,6.669587995158043,5.398851231987068,30.628843024766404,-17.12833790584932,-6.080106191331326,-5.562757962274999,-11.15323637301076,287.2424055535946,-5.584692181748045,6.3245733688283305,328.71016527903265,-31.44324928431145,-9.903298571967767,11.434556414042815,-4.289034897064347,-987.3046875,-20.99609375,-11.23046875,-865.234375
-76.47371893088813,-10.70748917037548,-8.81680460625422,-66.01256678867584,38.430606012711586,6.9182232992610215,5.6955769649549355,33.864385790796305,-20.908729244823117,-4.936895600643283,-4.944642846652269,-19.069356396680806,226.6966192610145,3.7996459965319573,3.7224068442806217,258.2783513841331,187.32835432686593,-0.7043054074355799,10.828695472424764,210.395831453178,336.9140625,-30.2734375,-45.8984375,307.6171875
-80.0996946330415,-11.032931864751424,-9.111896247285149,-69.24303811773346,40.45507057107394,6.99353051649516,5.857681838573602,36.27665251339217,-24.28326061428114,-3.478850469291302,-3.9954619701676326,-26.972008250452312,102.04853532305593,12.174376529278895,-1.8164447731876414,119.72847249608286,249.14983295979417,8.788242536342873,3.6886360545887684,243.28261394559527,-1000.0,-62.5,-92.7734375,-1000.0
-83.5234302768706,-11.30295958684156,-9.362839715294006,-72.30997498376856,41.4318528887488,6.882501094656974,5.86811545780742,37.72532795404863,-26.61274718050992,-1.8025423989918148,-2.788200418115925,-33.79245804392479,-37.579308056497105,16.796435637434367,-6.688079544044236,-36.23406305305299,97.6377885904723,12.849602256126262,-3.66140962333684,63.288802412796315,-1000.0,-40.0390625,-73.73046875,-918.9453125
-86.71631766443413,-11.51284848138299,-9.56701246330248,-75.19057473938739,41.26803728799161,6.577598696892182,5.712472830515855,38.101319374355484,-27.284591660120093,-0.01713903241003177,-1.4168956550402654,-38.48818437375347,-145.17447031280616,16.133231567075285,-8.08495985466379,-161.00088798230837,-136.10844914452008,8.875732596216396,-7.561354317713136,-170.45445477097633,405.76171875,-28.3203125,-20.5078125,609.375
-89.64755592772708,-11.658326299484987,-9.72250259320554,-77.85895961619708,39.91984505451654,6.077296070834506,5.380852583261399,37.34635036514587,-25.763703281832846,1.7638775699104174,0.01666072359761474,-40.12407977193426,-190.76846037891707,10.640930809770484,-4.979357414424187,-221.11982374743098,-253.6891756630873,-0.4390661575342016,-7.741398638457395,-256.00577893258924,783.203125,-48.828125,-28.80859375,700.1953125
-92.27297023221584,-11.735548590446303,-9.827595902577766,-80.2751537914624,37.42872060301417,5.386489036201879,4.870224815545036,35.4887244408641,-21.564269350509267,3.4312012521597923,1.4180071450788923,-37.88907354615414,-164.2929997944446,2.595820115673025,1.7617363292910282,-202.9484651549125,-161.08005923205772,-8.752384602247686,-4.822499525293163,-126.78382651710855,-745.60546875,-48.828125,-78.61328125,-833.49609375
-94.53551279975851,-11.741216037886225,-9.88081282536536,-82.38742119446827,33.91490554504454,4.516212616942196,4.18468456243716,32.63134049215321,-14.372130584066317,4.885787456926434,2.70608666584477,-31.272775305894577,-85.91284902020836,-5.036999165132744,9.417782589368928,-125.93926155173735,49.719836969686675,-10.775502114471992,0.3876387275576227,90.76700255821586,-1000.0,-28.80859375,-69.3359375,-1000.0
-96.37924885693347,-11.672580532117374,-9.881244581286724,-84.14696864662557,29.52594614074363,3.4834805955603905,3.3344690429905968,28.898695072460743,-4.2943950575278365,6.0451990592630045,3.8137566254193143,-20.338860832654326,-7.101227533788498,-9.784627585177338,14.359945985603932,-42.96441251940753,189.79648616620273,-5.968217273782891,5.908833592179919,200.65082595335846,-55.6640625,-17.578125,-17.08984375,17.578125
-97.75762482949492,-11.52726664804764,-9.828391702277866,-85.51498115313458,24.40505222211153,2.3114553354276333,2.336311044778198,24.410201890610153,8.036037208286656,6.8503617993019645,4.692370028696192,-5.81396505424755,20.695728540351926,-10.423359726052507,14.146465401486651,-6.141773740661762,157.05862299594114,1.6516974980574137,8.851560391787105,129.62191064278176,-873.53515625,-31.25,-5.37109375,-890.625
-98.63189549933786,-11.303221820138493,-9.721650977106853,-86.4601106837301,18.69260816097538,1.0289290999879614,1.2145547067162474,19.28553809956737,21.5517807806789,7.268459070565178,5.3176751946427885,11.027412117992503,-15.849689361195205,-7.390541171617403,9.00582953873298,-28.73124854983124,22.042797794863873,6.839812110295923,7.151233224795734,-16.081522839725352,-62.98828125,-48.828125,-59.08203125,-150.87890625
-98.96932079752354,-10.998965702774175,-9.560291074825566,-86.95707073723382,12.529007153548452,-0.33136012054944136,0.0003104399673600861,13.646833139017804,34.902308022867224,7.290353680950688,5.686846046864752,28.53176302062196,-84.37636564517926,-2.66449382617172,1.2035906270844003,-79.95257132284856,-71.80138466245133,6.814060338448052,0.9791185383286978,-86.31884051990492,-1000.0,-56.640625,-71.77734375,-1000.0
-98.74406190413957,-10.613962116044712,-9.343989230404052,-86.98779524929154,6.049368456030468,-1.7348883168995108,-1.2714270193804897,7.613110581263684,46.610960996737674,6.92571946281504,5.8076393141358,44.85123460465676,-130.99660943060243,1.1594532205927963,-6.686860859578609,-109.7306256165275,-66.1947928763788,2.7975858122104738,-6.786280468394442,-48.999728424638235,-310.546875,-71.77734375,-63.4765625,-282.71484375
-97.93864548472969,-10.148892999996987,-9.073212293621943,-86.54213319258753,-0.6226447321831696,-3.14716966588574,-2.56421978159884,1.2969625093356973,55.24496338116633,6.199385064551476,5.690381610501843,58.15797592711178,-114.20423937185653,2.251170395551526,-12.731428404700194,-80.62203199327283,-25.270274738268316,-1.481683692038364,-11.252324008702956,2.166389145754563,-862.3046875,-62.98828125,-47.8515625,-864.2578125
-96.54329699785895,-9.605712863608176,-8.74916072603478,-85.6164407414015,-7.373319220351456,-4.534810825783711,-3.8412301486068148,-5.191582047562153,59.60746253392283,5.150483377228988,5.3468038051377125,66.87890367856036,-26.63914811361094,0.5741949068705665,-15.631404918634287,12.100634495534711,-28.95165714011849,-3.0270914959773454,-8.3550476342932,-17.205956422586663,210.9375,-50.78125,-72.75390625,168.9453125
-94.55273549332559,-8.987456333352018,-8.373702998786436,-84.21041224326187,-14.089159892286258,-5.865725866552602,-5.066234587238873,-11.735873600085501,58.927693758765606,3.8340950721005305,4.7903516599576275,69.91462357463634,103.68990685937642,-2.0933381926188566,-14.779508330213813,139.46960070462677,-65.44185912652557,-1.8463047046553585,1.1026800168039534,-75.17438826352692,-1000.0,-48.828125,-101.07421875,-1000.0
-91.9656060200235,-8.297931053421857,-7.949543922795794,-82.32660668770932,-20.656072093041214,-7.1089889060309615,-6.205328001470052,-18.21286344216389,52.965343467123006,2.322791324754031,4.035074839463233,66.7656846715712,225.846728542767,-3.257614118303468,-10.559420969936177,251.37906788848835,-53.29565118907963,-0.39466707588867106,10.48825936056151,-69.17313818483204,-746.09375,-39.0625,-63.96484375,-717.28515625
-88.78604629978042,-7.54139939645723,-7.480138462164153,-79.97158521351025,-26.96551837708336,-8.234704383077013,-7.227700485121887,-24.49891894115676,42.02838781308626,0.706010820012716,3.0986572231683343,57.5705763546896,288.0022127760938,-1.2623363948196067,-4.104538524325012,298.87627288280476,44.0732674942396,-0.77134338512431,12.261132019298357,39.47502593694786,864.74609375,-7.32421875,9.765625,885.25390625
-85.01715384895574,-6.7221956284546796,-6.9689250208363935,-77.14902709081136,-32.895534627370324,-9.213766395014117,-8.10421838733491,-30.451086306659096,27.01698512380975,-0.9125841758670327,2.0128077735826966,43.1592868374299,266.5382851344046,3.7190822642312678,3.483880298527683,262.4267388196499,157.21339800596843,-2.3671413162282313,4.872566609403699,165.89861502582673,411.1328125,-6.34765625,3.41796875,339.35546875
-80.65151235837958,-5.8444164295283745,-6.418525275425902,-73.8506020779963,-38.285342468444476,-10.017977592350627,-8.806051297931996,-35.88440495213451,9.415058106689239,-2.4214107585620837,0.8308046646664381,25.03743813442157,177.16394473739467,9.650196848093469,11.20179516629122,161.1289651356907,169.5241451201522,-2.517986517747008,-5.750311598511781,178.5530310711421,-1000.0,-39.0625,-60.546875,-1000.0
-75.67695893380458,-4.912058573965215,-5.830853385438004,-70.06217770188594,-42.96148224064192,-10.621665747952179,-9.30634690955466,-40.601043721594046,-8.970081607664047,-3.714141348192032,-0.37928746034743593,5.111085990426241,51.72588968193474,13.337350261135411,17.225768511823105,28.473112605939935,31.498351041247393,0.3124392627700784,-11.756928047215887,28.75383508059409,-1000.0,-78.61328125,-73.2421875,-1000.0
-70.09120800717344,-3.9296584810434303,-5.207888465899104,-65.77818940871579,-46.79107810059111,-11.004785006445598,-9.583918930760928,-44.44426625854,-26.383706063944683,-4.707651437563545,-1.5502406638079211,-14.70046477879385,-85.28254093598248,11.75794069349574,18.785169222548607,-110.58873877652591,-170.43396818098478,4.388608143756664,-9.641222943337402,-182.57120331045036,235.83984375,-99.609375,-58.10546875,286.62109375
-63.90215374190493,-2.902913315626075,-4.552115679591578,-61.00159643402794,-49.686087777777104,-11.155624272805106,-9.625545646824827,-47.30304570106423,-41.29757228120435,-5.355630867301135,-2.6257402449004883,-32.652742115903585,-209.29714811616734,3.8726250053053017,13.922709259622806,-231.7306174712571,-260.53540021637383,6.238271920084172,-1.487469497681428,-268.0971755403667,904.78515625,-51.7578125,-33.69140625,754.8828125
-57.11511212126453,-1.8386599647351474,-3.8663571731098516,-55.731972850611086,-51.56527510605727,-11.071064998486777,-9.425969058568137,-49.07803829483187,-52.40617340367048,-5.649458336145833,-3.561174398370608,-47.20214510499968,-284.0259622846838,-7.942791180869077,3.560005453129467,-300.3340158694455,-129.78899861658675,4.162017065960888,7.669591503395235,-123.31269928591026,-582.03125,-28.80859375,-48.828125,-769.04296875
-49.73013653348197,-0.7442239404050124,-3.153507808404478,-49.9643690461006,-52.350040397668955,-10.754561871886212,-8.987318778100839,-49.68305205980105,-58.729572588325986,-5.608053924554999,-4.322068534224519,-57.1430137198061,-280.6469642498822,-18.308564761709977,-8.380254588363549,-290.6701074498843,129.9333495140493,-0.3867083665766793,12.509794534202742,144.50563534816948,-1000.0,-27.34375,-54.19921875,-1000.0
-41.75410804641338,0.3732556589705451,-2.416462152001718,-43.70139307234335,-52.00672480842961,-10.21397283121653,-8.318906624944258,-49.08726206567017,-59.84531437398133,-5.266405192894335,-4.884059008845442,-61.849065086145686,-206.33866858800772,-21.587621585465417,-16.960230579751048,-211.7776664304337,282.2109833491373,-4.767402550319924,9.483626972364023,290.5957607332519,-147.4609375,-13.18359375,-14.16015625,-131.8359375
-33.20939872936523,1.507156983979741,-1.6579282543471954,-36.96019083670974,-50.57390442626935,-9.460505978617796,-7.436434911039272,-47.33668844808827,-55.99437582803693,-4.668681755512339,-5.231115237601519,-61.36643494079508,-100.24879673472306,-15.316292997771228,-18.63066922753892,-101.24742343906938,177.98567726143983,-7.3590555876520005,-0.66843436435805,173.56553337920948,-862.79296875,-26.85546875,9.765625,-908.69140625
-24.13221020354087,2.6513729678890687,-0.8800557119988507,-29.769944475170828,-48.15262325030885,-8.508731315442441,-6.360463981422969,-44.54133852205351,-47.98030687580569,-3.8660116033339875,-5.3519482369684255,-56.31159658667534,-3.1378678985407005,-1.9419086174583615,-12.77251383918849,2.9291820992032895,-80.74432688510609,-7.395005107507696,-11.778569685286945,-91.61287416972297,27.83203125,-55.6640625,-40.52734375,-122.55859375
-14.568804943880094,3.8000008468695112,-0.08447898662569295,-22.168855085879343,-44.88762115426679,-7.377490611741756,-5.1161021064030505,-40.85838595458771,-36.98754251657618,-2.917842001347393,-5.241990351330245,-47.70816891933645,64.97083467216922,12.210587090123912,-2.194743472126967,80.64920430102555,-240.43792932625993,-3.9375078092993525,-15.643175978879412,-248.20862295766776,-1000.0,-66.89453125,-89.35546875,-1000.0
-4.574394921261359,4.946954318793911,0.7269653616850064,-14.203415707535692,-40.95581839123466,-6.090857406977655,-3.734623637183311,-36.481183755383874,-24.402690059292148,-1.893014582861886,-4.912452459779593,-36.820496746571735,105.63099019851177,20.240947522451936,7.791607540581599,129.99359865732788,-157.51745326807207,3.2939490343583238,-8.470849851528195,-159.4726063594662,-328.125,-38.57421875,-78.61328125,-305.17578125
5.786039648063342,6.085892147125662,1.5515842737893921,-5.928360523458157,-36.55994295190925,-4.677845556151469,-2.2544941552374156,-31.62931301580278,-11.650174769259852,-0.8655222681757854,-4.395664522184786,-24.98546021031363,129.62987237717837,18.48415790746409,12.117586940335128,157.86377833202513,61.12559779183168,11.651493706738295,5.532394335492685,62.31563099616912,-979.98046875,-43.9453125,-41.50390625,-985.83984375
16.438266143426667,7.21040671587117,2.3858965644170445,2.5945551660375044,-31.917170311960582,-3.1711057564641973,-0.7197088118874901,-26.534359506669283,-0.022660353617346057,0.0935519284408053,-3.7388442165493836,-13.441731579841253,145.56543436653752,8.42066998113453,9.130488644446254,170.89202701194338,183.6945713986018,15.184638561054474,16.881609882512134,186.92046662006643,76.66015625,-67.87109375,-47.8515625,53.22265625
27.302259612113104,8.314107426968947,3.226067622376919,11.299731379525864,-27.238666762263914,-1.6058445236598757,0.8232301255397051,-21.419955134729985,9.489527616727692,0.9225537329766488,-2.992517698020617,-3.169661240227333,155.68779463174803,-4.506927506391577,1.573942378548811,171.50277047679708,99.3498361765883,8.595122441369886,17.355283480451448,106.05410649826163,-1000.0,-41.015625,-64.94140625,-1000.0
38.29446496163244,9.390659306778435,4.068142949271664,20.11951871470619,-22.71441964620366,-0.01880196776071558,2.327719045140243,-16.487740658712326,16.30131673325378,1.574325283944012,-2.2022254747607337,5.201797956484691,154.8785964202148,-13.990563184302978,-5.438788348877388,156.58941786932726,-80.5787491221192,-6.667518307133502,5.639000618343779,-71.62536305223459,-691.40625,-34.66796875,-25.390625,-667.48046875
49.329039816951024,10.434002326551145,4.908289413370239,28.985407210335246,-18.503266129081,1.5533761258814929,3.7494091131642358,-11.907203694121582,20.263378784572616,2.0217520638428796,-1.4021544362078902,11.425024044909074,134.07463517209763,-15.860159448028437,-7.53031592018054,120.69641442617932,-156.56399394323756,-20.62353532772918,-11.12534239207528,-151.63570340110815,878.41796875,-36.62109375,24.4140625,916.015625
60.3268893723408,11.438597122259704,5.743384788467562,37.83687576636368,-14.70126798935166,3.07579004800984,5.049449067123693,-7.78429060448064,21.715834251641642,2.261104378338391,-0.6079496373715493,15.690197771108807,92.58444618561724,-9.791294138032969,-3.1680298144947647,67.22686867801147,-50.18121123258345,-21.46229048370214,-21.30935972344704,-55.432963855196235,603.515625,-30.76171875,12.6953125,468.26171875
71.22705510667356,12.399485369307564,6.571421926132881,46.63162650585379,-11.308424917808637,4.516236474936845,6.196748799483961,-4.131298614728253,21.48592800365321,2.3104600782144473,0.1840143501463072,18.62079044692637,41.897458048718505,0.7934551854714075,5.584176559962165,10.218051197302,121.39450051237587,-6.165596274500392,-17.02403466315301,107.12361139509557,-882.32421875,-59.08203125,-70.80078125,-989.74609375
81.98218575750924,13.312108773337206,7.390960348567784,55.33960700624898,-8.251999263011424,5.845297692059514,7.166855364272251,-0.8938486070262067,20.633123825820412,2.203302772892203,0.983326868600829,21.02198310093383,-12.594720420773239,10.488539549122143,13.588158394522315,-44.74582611151113,166.69021640255656,15.108250431432298,-0.841069979881208,153.08717495746615,-1000.0,-79.58984375,-107.421875,-1000.0
92.54334861970418,14.171957717068233,8.200009264418119,63.92783276780641,-5.445299822147378,7.035862533230571,7.938927752485815,1.9918751899871414,20.071107515101726,1.9795569278746104,1.78667737990751,23.53121780223207,-81.99293228192266,14.505834777633378,15.033870785097466,-109.19018429887002,22.035167694490045,26.28472477410149,15.715306181215537,20.698794742387935,104.98046875,-70.3125,-54.19921875,166.015625
102.85789434614665,14.974382432934682,8.995573737994391,72.35942873286197,-2.803235920607192,8.063189625910766,8.49492079309182,4.588995431771636,20.398969663176707,1.679231178014021,2.5709117471922114,26.493463650856395,-170.61273513584368,11.04949896041423,7.3135504972683,-187.04524191923804,-165.48314267795104,18.698272733504165,21.497310677912402,-150.9681192179126,952.63671875,-43.45703125,-21.97265625,862.79296875
112.88172326992762,15.714827141251913,9.774158938067417,80.60599451850628,-0.21231461375443703,8.906292349760172,8.821808164591282,6.991789901647979,21.951461824526415,1.3418159909707688,3.3008938889375927,30.038858838732327,-251.1389184780774,2.2979523522784815,-6.499612584403863,-251.5631204447395,-183.7307611703803,-1.5410927943197947,13.997415396073983,-163.381361331225,-480.46875,-38.57421875,-51.7578125,-619.62890625
122.58342467839817,16.38925695223947,10.532311104106942,88.65048535269638,2.4708772614974746,9.54978065503504,8.913687891012056,9.324739252217594,24.784820235963572,1.0078110451461957,3.938984388253338,34.07521022270243,-280.4928138184654,-6.832190138726121,-19.20253435145307,-263.4513204327051,3.537263424325066,-19.038249979416047,-0.7923762123558173,12.013067625368114,-1000.0,-44.43359375,-49.31640625,-1000.0
131.93320109411272,16.99440241930995,11.266714744761975,96.47567927927255,5.372490428942787,9.984869446373958,8.772164157681207,11.695625072609168,28.536200732122474,0.717336378804629,4.4492490938609945,38.159181670565914,-238.53421851734421,-11.56380421723462,-23.916879098826833,-208.12649478645133,197.94479198727777,-22.100914190625538,-14.368873588682657,185.125170313454,-194.82421875,-39.55078125,-20.99609375,-177.24609375
140.8936530756918,17.527752881013033,11.974302679205984,104.05592638907065,8.563874991693705,10.209331747761277,8.40647961431891,14.162749352284488,32.38976550060101,0.505361976926108,4.80146105080468,41.483184856968144,-140.95525434613924,-9.915233839900582,-17.903768799367825,-104.93905227702236,182.05967616017483,-11.134030385119418,-20.36565373521694,158.20647157685627,-842.7734375,-62.98828125,-3.90625,-851.5625
149.42106264844153,17.98738662845006,12.652613017852476,111.35907219674993,12.061920498231753,10.226733012064738,7.834107600962059,16.73857370637202,35.24369475593066,0.3955821733006255,4.976870120135851,43.04785818813052,-20.70503753630422,-3.54998064673444,-3.6462092493590563,12.780604385323574,-31.892197794105304,4.067049398261199,-15.833395085486721,-44.64247695381691,161.62109375,-65.91796875,-4.39453125,89.84375
157.46993536616688,18.371763786449982,13.300003110563084,118.35054089615905,15.842617538677363,10.04541921446397,7.080518478861749,19.402625461904922,35.95403699144226,0.39549084026052517,4.970383072180242,41.88752604085568,93.05205487888995,3.500140923874751,12.559338931938678,117.464919224954,-212.1462199815884,13.671647783685826,-2.0660209313925204,-201.49061436681578,-1000.0,-50.29296875,-44.921875,-1000.0
164.9944695695124,18.67970623096919,13.915360102330531,124.99440572320823,19.846691448404506,9.678014375389216,6.177052656145382,22.106359740429987,33.543757426124344,0.4958272744453417,4.785500130267381,37.25410788531354,181.84803705898761,7.377270761589071,23.418671805033107,193.1221494849476,-164.53272147652916,14.481371818416225,14.332804230892265,-140.81735950623764,-373.046875,-39.0625,-69.3359375,-324.70703125
171.94687421292923,18.91061524479751,14.497534634158384,131.2521067502461,23.977227212811698,9.141565590291584,5.157817886539728,24.77220820363282,27.35244919673624,0.6745736107527563,4.426490089456888,28.7459819975481,234.96195438520337,6.571578882843278,23.890522623758816,232.28523582778328,56.404094574278695,9.171983976347747,23.440020355691633,70.558814292975,-861.81640625,-35.15625,-25.87890625,-848.6328125
178.27764468424647,19.06467917889969,15.045126751760154,137.08307578997898,28.10569153018958,8.457503646016962,4.057765856068727,27.300363601475997,17.168313352910765,0.9017333039369906,3.8964606079156763,16.414976134818556,248.2252310384365,2.363400736894335,13.770653570666004,234.08991667493007,213.6017793416665,1.421237354459072,18.4265079036031,205.70541887012314,286.1328125,-49.8046875,-23.4375,258.7890625
183.93998834216282,19.142845255960346,15.55671202572793,142.44873026242627,32.092273012022694,7.6507152642217715,2.912230762721206,29.586944952127016,3.344904982533174,1.1418341530010123,3.2018613993504492,0.8489413279601278,225.8267279652447,-2.475685438091007,-1.9929144421306466,204.56894736466927,145.810673838481,-6.704009961343016,1.5330680587438132,124.63259863373881,-1000.0,-59.08203125,-53.22265625,-1000.0
188.89136449126377,19.146612449271807,16.030939956662095,147.31349848889718,35.79688553952581,6.747990066270496,1.756088302748265,31.532317031290358,-13.19637749407323,1.3550517415405179,2.3556583495814016,-16.856072410093727,175.82637541091492,-5.510691992747701,-15.969831591147917,151.76242100953604,-70.07259147768761,-13.150571328315081,-16.636285663880464,-84.38593656078457,-1000.0,-46.875,-50.78125,-938.4765625
193.09054458953452,19.077932209131358,16.466403927338142,151.64219563598536,39.07596310593008,5.776833315638742,0.6222678034004311,33.03765844325474,-31.08910398924846,1.5004644774191624,1.3776904958665912,-35.231696580756214,103.96382734060468,-5.699475599968998,-22.145178522863016,80.7920144042559,-211.5606110946337,-14.128646400997324,-24.431494947470686,-206.70239789935962,491.69921875,-22.94921875,-15.13671875,621.58203125
196.50222966913333,18.93934255414696,16.861746618229738,155.40533312402204,41.803202114161316,4.765054804297014,-0.45885607610316903,34.02635601282496,-48.61623554713618,1.542306978289212,0.29738476482977483,-52.53307625798898,20.194592106306754,-3.3785511402307313,-18.452233293196475,1.348808597205626,-138.26567489111494,-6.526073181197453,-17.051084060591368,-119.96914641556113,547.8515625,-43.9453125,-11.71875,513.18359375
199.1081424135021,18.734044488186267,17.215935227052523,158.5898896931901,43.90821069543166,3.7401911162101777,-1.4594383635004204,34.479777777638674,-63.7934969557365,1.4548993529272773,-0.8429204123963044,-66.82805352028217,-55.62252840570981,0.18427334467648948,-7.153536211767631,-67.53796945640693,74.38790963148658,7.141314343487295,0.4920653830125411,88.69755841111696,-951.66015625,-60.05859375,-64.453125,-979.98046875
200.9056165365454,18.465707935105844,17.528134181881505,161.19655870909688,45.371327123937725,2.728129753453947,-2.3553269435769715,34.42602057319859,-74.65013340713413,1.2235395632739066,-1.9911388913530725,-76.28542135918586,-109.85819769476025,3.294596428325525,6.324076717703986,-114.62147214824735,210.96179719698605,17.852505702680503,16.79677863909829,208.15893069936195,-1000.0,-39.0625,-73.73046875,-1000.0
201.8946987912484,18.1382703626394,17.797257740021664,163.22617585951917,46.18085885490672,1.7518573661187657,-3.1280311588904968,33.89361193265736,-79.63380734064057,0.8447486727895268,-3.0930464546433476,-79.5674553294265,-149.81206285560614,4.578652311241349,15.809781723773533,-149.69376484167617,130.89145572566918,16.680285950696415,21.752377786297746,114.1047199446005,-105.95703125,-45.41015625,-28.3203125,-14.16015625
202.07587867026518,17.755908199554757,18.021969750461377,164.67802828351404,46.325728437899805,0.8309373710183348,-3.7649784973117892,32.90498087789176,-77.82473402362714,0.3278907234795998,-4.094525799034499,-76.00825148022243,-186.89879803698997,3.700841017848542,17.54247273243967,-184.38056744628702,-81.65518878292087,3.3433944118068277,13.435236215259621,-95.7178251100838,971.6796875,-52.734375,8.7890625,979.00390625
201.46200737258815,17.323007903392053,18.201265352968925,165.56223830827037,45.832714342523005,-0.018842443882208598,-4.25774496114854,31.51432858717695,-68.9170977532075,-0.30425164266048893,-4.937861668098036,-65.55781420633798,-211.57333578601882,1.4272180173108804,12.117053961834996,-207.15345750212347,-200.35627248262693,-12.373452367030852,-1.2839620619450118,-197.4555852747005,-377.44140625,-43.9453125,-25.390625,-409.66796875
200.08343774770574,16.844087736114506,18.334803918768962,165.90441236309826,44.77873039758483,-0.7858026914628954,-4.601052045857745,29.8177083225382,-53.23023766264287,-1.0166466173862108,-5.563037418364585,-48.76788033130588,-201.10040300378444,-0.9273377000196237,3.455826836409515,-193.53929858236472,-102.8138904510947,-18.534466357111288,-12.969431948673744,-85.81491090682786,-1000.0,-49.31640625,-72.75390625,-1000.0
197.9774428362653,16.32374955776916,18.422521421126927,165.73457750906715,43.25141277000814,-1.4624297401395294,-4.793993154956416,27.911846603775146,-31.83332884570772,-1.763963126437934,-5.9186310602900605,-26.89362922648847,-149.4693930637808,-2.2015509443915833,-4.225973281694738,-137.56909759131628,93.5294748678982,-11.090288834007263,-16.45319018465144,107.06671172002086,-265.625,-49.8046875,-49.8046875,-210.9375
195.1775091632023,15.766632355149579,18.464199441016717,165.0768477299153,41.31156916539748,-2.045260978517461,-4.8411868787363375,25.857937050567216,-6.564572373955898,-2.4935708877008755,-5.972108096774853,-1.8855168945188994,-75.77157748277804,-1.9201900483033587,-8.582926108739436,-59.53787697490922,169.78017810726755,3.14183288191119,-12.071184469651257,165.69499711315356,-877.44140625,-48.828125,0.0,-857.421875
191.71274853311584,15.177358080893693,18.45964530027095,163.949360827042,38.99117008458974,-2.5346438635393898,-4.75176835868253,23.681652572866593,20.173231978309786,-3.1494974057995764,-5.710979889099648,23.834533915749148,-4.619815243368272,-0.43393057517158456,-9.20220756220762,14.505929792463043,55.07533875457103,12.906837065426732,-2.5972178877963676,37.36221688161861,145.99609375,-48.828125,-39.55078125,128.41796875
187.61162998002342,14.56053903510145,18.40894847569789,162.36792031259043,36.30694874974923,-2.934174851047993,-4.538045007099759,21.386927010854112,45.73348756280064,-3.676288061409092,-5.141722108031312,47.69459704401786,52.68501478635004,1.3968469816603948,-6.951848774768618,71.78181919684164,-105.15420795535104,12.04043238478365,8.385330586183123,-118.72381817988548,-1000.0,-25.390625,-88.37890625,-1000.0
182.9026701694044,13.920899911651999,18.31218111179093,160.3466682634503,33.265120261645976,-3.2497034864513057,-4.2158459802364385,18.961247221051607,67.53373602392008,-4.0220696097969,-4.293617094675121,67.27142921944248,98.37982797573652,2.749113698173386,-3.605175383434368,113.58953059421226,-128.43983495776672,3.524819805536604,15.809397680872303,-124.5159267719393,-700.68359375,-28.3203125,-45.41015625,-539.0625
177.61378475813407,13.26338301823127,18.16912743608907,157.8951477479335,29.86265715320885,-3.488386208414948,-3.804622652599569,16.37067241354479,83.3372458610538,-4.142300971279372,-3.219584060989039,80.52967376343986,138.37852784278,3.1668117280626316,-0.9793579179473255,144.42065265640127,-0.7465621030999869,-4.72925259546154,14.634472554748562,15.813787738264233,900.87890625,-56.15234375,0.0,-967.28515625
171.77954860121528,12.592994489254872,17.9796541709771,155.01740232468816,26.113593515258906,-3.6585786563135,-3.325408997312971,13.562893448231618,91.57671269928068,-4.006426790895983,-1.98731319313282,86.04363914353411,178.47384727056,2.4536321930267935,0.33016062064280405,165.35029217094794,123.53387750480901,-7.353932708923427,4.326112395101889,133.49626109474696,308.10546875,-55.6640625,-40.52734375,277.34375
165.4502547002584,11.914439121124035,17.74405712390471,151.71655206574874,22.078320596681625,-3.770361429144091,-2.7989232660375936,10.488221653627196,91.59983627268208,-3.605524331043004,-0.6702710378887867,83.21023246567451,218.8956902942972,0.5250570318821156,0.9944506044355631,175.79726534427493,102.07398128051025,-4.93692075338264,-9.132951235485743,94.53343639728544,-1000.0,-74.21875,-86.9140625,-1000.0
158.68548725378005,11.231770271142869,17.462741480111802,147.99739630810328,17.840741541759616,-3.835916489872884,-2.2458722277188334,7.11322314458629,83.62184026462843,-2.956979213048289,0.6535182665982572,72.33771334008726,239.42914994261685,-2.433405884902991,1.6619483420450627,172.4340037040655,-47.40536542339313,-1.2843462108426922,-17.04466611874922,-56.1204877811821,-1000.0,-89.84375,-54.19921875,-1000.0
151.53978608935674,10.548209395704125,17.13591196625518,143.86391045566256,13.46122915693116,-3.8692498541326064,-1.6872037372476774,3.4170083757071885,68.51306682660848,-2.1038677822425584,1.9036679545662254,54.57191520964002,203.18620021766813,-5.67351761422364,2.3010077659117982,146.6843588223532,-168.83611355764603,1.1378030039498448,-14.146355891931753,-153.89676039891458,301.26953125,-32.2265625,10.25390625,437.98828125
144.0627650978948,9.86644024596766,16.764036787600695,139.32356099069656,8.978499782710768,-3.88436925502361,-1.1419301440315062,-0.5919025805206352,47.71279052081038,-1.1062904925561377,3.008793583034253,31.808863809877867,93.34902823446333,-7.686557585622922,2.8737520812869795,95.00389358435207,-120.12790226418724,2.638781576966171,-2.1058945661801216,-90.76980084636534,707.51953125,18.5546875,7.32421875,652.83203125
136.31066594950502,9.189391069753853,16.34850881349937,134.39847024471644,4.447917660185553,-3.89207761613538,-0.6245656115482049,-4.840428230271765,23.218557179159973,-0.026865094332258994,3.917939492610465,6.589804604147743,-59.21784116832184,-6.588226767405623,3.6998835692163348,28.829287993713283,79.19692691234458,3.9932532052580223,11.268701706070674,75.42562159847904,-821.77734375,-18.06640625,-59.08203125,-877.44140625
128.3468887966632,8.520694177487767,15.891480959210494,129.12444270063148,-0.057473539034421775,-3.8981524957404794,-0.14549113621267448,-9.199190681956086,-2.617967252420604,1.0778679084628604,4.599353290818249,-18.228155965918525,-196.4602075415329,-1.5983274919893673,4.58616997833211,-38.85175009369514,241.06953376011322,3.926131268540191,16.625964089335234,174.99710435575062,-1000.0,-64.453125,-85.9375,-1000.0
120.22971192183208,7.86425730256866,15.395070078613877,123.53766589541038,-4.486468012741688,-3.904669787035744,0.28656651001710065,-13.531597892016311,-27.464346837508305,2.1538032645932415,5.030962173475767,-39.96132739253778,-275.0325975100089,5.450600059458997,4.268755719386927,-109.26460460114143,180.52956164688962,0.3195779868657115,9.866832997864114,96.88223847597861,-142.08984375,-62.01171875,-36.62109375,-89.35546875
112.00551735575891,7.223570374027136,14.861053568416283,117.66805633978969,-8.828515768001372,-3.9122716623929032,0.6636910463546589,-17.71991883010389,-49.28192901763343,3.1429822519913237,5.197669659801243,-56.456353564224074,-282.40549670572545,10.655175332698699,1.6134496979290338,-186.56784624151967,-79.2783836069934,-5.598245107464969,-3.5568443333932707,-86.24160194087509,-916.015625,-34.1796875,2.44140625,-950.1953125
103.71131024608468,6.601525568509838,14.291344570674292,111.54153979984915,-13.10030264838706,-3.9207848684852125,0.9804021869511583,-21.661179181529228,-66.44172343569971,3.9850589686782043,5.0981111804093375,-66.26068355723635,-227.63565158412695,10.696480417606855,-2.7389571142148004,-257.978031395751,-298.3427064552574,-8.107722902992718,-12.392557308051884,-183.19509993528345,-134.765625,-41.50390625,-41.015625,-244.62890625
95.37744635901835,6.000569711610285,13.688308249963102,105.18154707620296,-17.33084340536602,-3.928808499327341,1.234616087451148,-25.264953480958933,-77.79313517403578,4.6237704075954325,4.74819573643125,-68.71591650452744,-130.87623814955384,5.177055012155927,-6.591218630340158,-294.0796958156592,-250.41423252318745,-2.603530798280447,-9.891562741966627,-87.52436906901434,-1000.0,-70.80078125,-81.0546875,-1000.0
87.02797613367592,5.422637955600763,13.054348892853465,98.60857696785202,-21.55408694609437,-3.9340564289071795,1.426169249036309,-28.456711758627595,-82.71633770235684,5.011125040803926,4.174993239286334,-63.98318758554704,-17.75862258819934,-3.2781233048389598,-8.06895222618025,-266.51504859565875,38.83203075123611,7.577702922510475,-0.344941333995171,102.74363195790178,-335.44921875,-69.3359375,-71.2890625,-290.52734375
78.6804198663657,4.868917564078682,12.391415529942824,91.84040306258079,-25.803450305052912,-3.934240378071062,1.555137383630612,-31.178340025482388,-81.13542218602224,5.109808216560041,3.410183490214075,-52.973344429235595,85.39833369213062,-10.681273692146421,-6.833297240077813,-166.6099471390191,303.24702768954495,12.465152132199524,6.014076869777441,185.74628277189734,-881.8359375,-56.640625,-32.2265625,-872.55859375
70.34731536335609,4.339849215745661,11.701103849737711,84.8939680641304,-30.101299208283706,-3.927158390993688,1.6221457522281595,-33.3828403804064,-73.46936273939708,4.898274603686582,2.491324748210995,-37.18570314434155,158.0962392834197,-13.601119019412446,-3.6358411838511477,-13.224047669522658,294.3376527040664,5.502375528742912,4.2330201272185946,70.3723463751834,216.30859375,-41.50390625,-42.48046875,187.98828125
62.04007184969488,3.8354709159156246,10.985040923170057,77.78859631097284,-34.44271176186249,-3.909716209415288,1.6295592331943451,-35.02510187764009,-60.5279251539282,4.3784503462535325,1.4659202538787013,-18.485930886769886,191.20389256248575,-10.49333386290099,0.5257703462878303,153.05530045229807,23.680840093751986,-8.325949177973648,-1.001068267073176,-125.87427556462168,-1000.0,-8.7890625,-60.05859375,-1000.0
53.770119231971094,3.3559479003478634,10.245046442975724,70.54631418564391,-38.79029751245811,-3.876499130699674,1.5818597273600572,-36.06253620688726,-43.42443562311973,3.582424840256117,0.3912952846015907,1.101553707897565,184.90640421911363,-2.211472486357669,4.644208198887418,282.8320379692639,-255.1072853679883,-16.12388353288419,-2.2103327160529207,-200.06680424039888,-741.69921875,5.859375,-13.18359375,-707.03125
45.54772460810819,2.9020287794774244,9.483304350821282,63.19040156107409,-43.078595721139735,-3.818820233387206,1.4859457459425842,-36.46150217892588,-23.50404987474113,2.5738149431220987,-0.6671519946813156,19.582356482250283,144.37457260342742,8.270058133104143,7.815619263965039,335.61524944716126,-294.75699997457156,-9.703415660544637,1.8624411893821315,-72.99634061266588,864.2578125,-19.04296875,13.18359375,893.5546875
37.388671042863024,2.475065061949621,8.702737931462071,55.751881714980854,-47.1959596598349,-3.7253994323090645,1.3519217664140866,-36.17899612862582,-2.1783161987959248,1.4397710173116316,-1.6373405903871112,35.250962219631425,84.00232559529276,16.719029978431852,9.47298577748119,301.7066215332704,-77.3619887245642,5.712811814523989,5.377410603468587,135.6764319076574,408.203125,-52.734375,-41.50390625,352.05078125
29.32374657355571,2.0764611861248956,7.906972931547969,48.27823571051864,-50.96210660756069,-3.5849449924758816,1.19239664906159,-35.139900651403686,19.247424991617706,0.27428143906944663,-2.4484998638699285,46.9145738706489,25.82656656380549,19.029998334264235,9.129620456399762,206.33729066754756,186.41234806939363,16.11698251614171,2.574021961632923,226.85939846175395,-1000.0,-85.9375,-94.7265625,-1000.0
21.392938605876637,1.7068792358286928,7.099584509824745,40.82669361734851,-54.15872912784929,-3.3893664141255018,1.0194847523889783,-33.26570488919166,39.53965596123313,-0.8401034537522554,-3.0470532961821934,53.8675352284862,-20.756135676874475,13.036633335228794,6.0103547297991735,83.37199622492572,257.4470463575464,12.354584351415044,-5.275026361633851,106.31332775011563,-1000.0,-92.28515625,-69.82421875,-1000.0
13.630660366845952,1.3657534691165898,6.283468655939812,33.4492626403987,-56.5886260667256,-3.1356761495809997,0.8424143196555706,-30.52768060838463,57.41111952336328,-1.8431145540859573,-3.40762517004108,55.73964296445816,-68.08012029226491,0.10955318645970812,-0.19684785885968883,-46.48363851095043,86.8329672385074,-1.0878561794936117,-10.240416065199371,-125.47308122755075,185.546875,-40.52734375,-24.4140625,270.5078125
6.065042966654815,1.0515278168159052,5.461080479403099,26.192194758851237,-58.087262769677785,-2.825277387875033,0.6681263406394864,-26.949911148582693,71.59797388018315,-2.69521147197025,-3.5299862523901586,52.50893779106126,-125.2391313962369,-14.56190007336018,-7.9212752210021025,-164.56476421242567,-140.81812799396215,-11.081655080155004,-5.524622425467408,-252.38022410248345,875.0,-10.7421875,-10.25390625,779.78515625
-1.2697919883180553,0.7624020483896042,4.635064167103876,19.107554052840605,-58.4924898635135,-2.461508087051943,0.5031705078209079,-22.572276877457604,81.09513200894442,-3.3682962215532393,-3.429516661225735,44.62592910978224,-173.5573807094616,-23.932504413932133,-13.728925711141404,-239.8658202084483,-194.20413204114303,-9.358330644089001,6.430178636688317,-141.7851489499743,-612.3046875,-35.15625,-54.19921875,-736.81640625
-8.3312392676089,0.49683349134586335,3.8083664400582307,12.254181602124605,-57.64698248267403,-2.0480198445335125,0.3538999871181929,-17.44790358846647,85.24888873790589,-3.8398034163184613,-3.1333753829194575,32.96199730564343,-181.93659736675147,-22.89262008286908,-14.489185241426407,-246.3710498660506,-37.75790655592888,-0.41510400402859593,14.39411822625678,109.95560775132586,-1000.0,-42.48046875,-77.1484375,-1000.0
-15.080235312593784,0.2535019847167935,2.983816579859558,5.685163857888602,-55.44587620967496,-1.5889386816562034,0.2250003823399898,-11.681899968188246,83.66555517126622,-4.09406972536459,-2.6821190842431326,18.577094074099463,-140.72983429308792,-11.470880802099131,-9.679545089208906,-189.59753415825193,135.29026802661159,4.518776072079023,8.969095004702135,255.41897186527186,-168.9453125,-28.3203125,-31.73828125,-145.01953125
-21.489977990884103,0.031158177757781614,2.1639679717463136,-0.5599565335284629,-51.86910149239454,-1.0893924326040783,0.11898680919419383,-5.4502336219943395,76.17371366862137,-4.1252831275618895,-2.126770151113984,2.560495888541612,-68.50029834097627,5.036987390502196,-1.5476059241302254,-102.51327165196348,127.32188360261728,0.6703901125129937,-6.4774298270355954,148.3680803523347,-884.27734375,-34.1796875,-9.27734375,-904.78515625
-27.544661463456958,-0.17143303065101723,1.3514574820528826,-6.453358347268608,-46.97680560383337,-0.5556912208098994,0.037425335954447206,1.0163394074071548,62.91289956188288,-3.93893796232461,-1.5193175838828987,-13.994010913610095,7.997020497556512,18.96718283823659,6.585888213200212,-19.100124430117674,-39.710555212300314,-5.028272314860845,-17.297981095601326,-98.33769022628648,-23.4375,-61.03515625,-40.0390625,-106.4453125
-33.2362725350947,-0.3556552204077174,0.5492359015410914,-11.976265755007054,-40.8951052268017,0.004219403553092805,-0.01829288542996911,7.4534021126194565,44.42705664981879,-3.5537257754939193,-0.9058010944308141,-29.996537895888288,71.24051942536613,24.117425994437976,11.908960966826669,43.2536241465918,-159.51260634023836,-2.758945473208008,-11.991349641018473,-231.66896502665625,-1000.0,-56.15234375,-50.78125,-1000.0
-38.5639838471474,-0.5232684011150875,-0.2396916911965176,-17.118631894546265,-33.807509179846626,0.5802134126366142,-0.04775458452294015,13.577743765309478,21.69060798895562,-3.0027502631028615,-0.32635101926061333,-44.398561490373844,115.62360144668853,18.562370874818424,12.79463665393061,83.79156870053245,-85.04228160350466,7.637653171772004,5.249234520999296,-124.94845031029689,-425.29296875,-52.24609375,-60.546875,-358.3984375
-43.53537621352416,-0.676460601775524,-1.0126252366728867,-21.879656026172764,-25.949687866688226,1.1601394208606886,-0.05255447682227414,19.10032890517072,-3.9295239686290406,-2.3310078579160525,0.1833284208692052,-56.241857219276476,141.34347443590454,5.368608989969536,9.135937757640432,109.1265515917457,104.08849714086243,15.110166348824631,18.042704950484865,97.16740749508799,-909.66796875,-55.6640625,-41.50390625,-887.20703125
-48.16569213369273,-0.8177450646195222,-1.7672364693829437,-26.266397495625167,-17.59584046999763,1.730566122929207,-0.03626499347196322,23.745305297111564,-30.732580908677466,-1.5899495855257286,0.5939892782379068,-64.68793190891952,149.99136297040943,-9.089252604501208,2.523252028734835,125.21278065499637,194.65536081643145,9.031505603622648,14.19282978622601,201.11892764346942,240.234375,-50.78125,-34.66796875,232.421875
-52.47341390677745,-0.9498287619216174,-2.5014192010089777,-30.289668130195665,-9.032568091171111,2.277659369836083,-0.003642504843872795,27.27620127111256,-56.748141593103206,-0.8314627117611798,0.8868856298425752,-69.0247843588313,144.29252369658138,-18.322261532259272,-4.233550966539456,134.25169637331157,78.66966918817403,-8.40294051639146,-2.313183386065219,90.4680371262597,-1000.0,-41.9921875,-56.15234375,-1000.0
-56.47844130629707,-1.0754262932156031,-3.2132003826169866,-33.96268000265711,-0.5416867932382777,2.788217795054576,0.03998565245305674,29.510585169852472,-79.87901986223343,-0.10181701423018352,1.0559025521883252,-68.71817656299068,124.74785801282931,-18.68509875099873,-8.372836102198322,131.81051275406395,-131.00879812511786,-22.456487031227496,-15.834703185229687,-107.18258783287648,-949.21875,-27.34375,-28.80859375,-836.42578125
-60.204206091667686,-1.1970117159922948,-3.9006430884380885,-37.30268516838867,7.603651280018419,3.2508248656210097,0.08934190338544998,30.32240248474447,-98.11905869303573,0.5636634299873506,1.108296982926288,-63.49900883056136,87.07301385180526,-10.721550940211193,-8.416053343824085,107.97977756143695,-222.66054571989133,-19.304785652478955,-14.577511136212514,-185.87232818124085,603.02734375,-31.73828125,7.8125,750.48828125
-63.67233948494329,-1.316687864150329,-4.56153892806768,-40.32485040402436,15.165291210145291,3.656495637295398,0.14041307938022127,29.66570260719692,-109.69298019970697,1.142588214516279,1.066032591805499,-53.35438180643169,32.30898073253171,1.4020609518273865,-4.604366060031114,60.74260920557569,-100.25837401364319,0.30057978934451973,-1.1168064288157562,-69.17245194987484,493.65234375,-62.5,-21.97265625,438.4765625
-66.89199636981002,-1.4363276816353683,-5.193246970309349,-43.03215472116368,21.9795272017396,3.998343215434403,0.19105325974176643,27.6052824993043,-113.14363783017139,1.6227093770405037,0.963231002039311,-38.47982829335927,-25.792488921911573,11.903280002914856,1.2109006536869873,3.3002747374592802,123.20566237219349,20.719504554441812,11.347150934542062,121.8710411603412,-987.3046875,-46.875,-57.12890625,-1000.0
-69.86253572745885,-1.5577416386407719,-5.793062791881608,-45.41969949596721,27.949119569945186,4.2711093371821285,0.23980197827761082,24.295363182140893,-107.5701417522124,1.9982008763137376,0.8363197131974797,-19.40109314286206,-76.19152131834831,16.109277765697655,6.053804159866542,-52.68467636813998,231.73077695127566,25.21098447097785,12.044395528525415,189.83318533806133,-1000.0,-17.578125,-48.33984375,-1000.0
-72.5868708973295,-1.682555547843031,-6.358720899981485,-47.488681383670425,32.99972361216369,4.471571011242649,0.2843268084952938,19.92536216375477,-92.92825901205944,2.269153153394009,0.7136689805664395,2.8386984744944126,-124.06064782983908,12.712815190461777,7.146417911432973,-110.21005517372961,116.47435711269901,10.735946384563395,2.2755133525695164,59.0112540548842,-20.5078125,-42.48046875,-40.0390625,85.44921875
-75.07309346168798,-1.8120395235596651,-6.888541358488552,-49.247313298530024,37.07454778629203,4.59900594605411,0.3211187977688342,14.707806839537415,-70.08771231714562,2.4412610787983478,0.6117199122678805,26.72369542129273,-173.96131797206792,4.0986561731370825,3.6402664312094197,-169.50660129704036,-106.95805132619947,-10.220765277527823,-7.078969475803524,-137.41826823659636,900.390625,-49.31640625,-47.8515625,876.46484375
-77.32252373147183,-1.9472106992465161,-7.3813992157498935,-50.698546043930335,40.17088382830472,4.654693230815084,0.34583782278823877,8.906736948226463,-40.64145769098904,2.5221929996948487,0.5354003601561294,50.51604013217163,-208.2733020414132,-5.396450370187959,-2.7329918747301614,-208.45832621858636,-209.98957755346163,-21.535301976214544,-7.145480811172948,-188.9384947313717,-524.4140625,-46.875,-73.2421875,-588.37890625
-79.32563088010589,-2.088997187548809,-7.836810423689197,-51.8367095892783,42.34771557762959,4.6411916248310785,0.3533473705931702,2.834078140206121,-6.750326281338054,2.517964218530229,0.4790228704071811,72.41707225818313,-199.6500831125694,-11.78277747139014,-8.686273508381316,-198.26452735214014,-94.61069676767303,-16.746901650247487,0.2796396176368411,-38.801976359020465,-1000.0,-32.2265625,-45.41015625,-1000.0
-81.07277880719587,-2.2381898269668317,-8.254896758366947,-52.65868945846836,43.68430686328945,4.562291250753202,0.3381878001613468,-3.201322893914498,28.90132415333995,2.432845039639719,0.4300419270178227,90.57988919886596,-142.11576326584398,-12.928086470300196,-11.068536644934612,-135.17879102959273,100.4994596466605,-2.1673873565420574,5.785795499255977,146.50031886433672,-215.33203125,-30.76171875,-3.90625,-186.03515625
-82.56337869169677,-2.395330362839357,-8.635912732073232,-53.1724537687973,44.24578607085954,4.4231387581840185,0.29640562626506534,-8.933338329365176,63.24905728188622,2.270705589651413,0.37802028653633873,103.19415290825984,-57.358726757920074,-9.053254860138939,-8.142988475981769,-44.6026492407785,161.4832459882477,10.555595948860605,3.1523425407622985,164.26874089397737,-871.09375,-61.5234375,8.30078125,-872.55859375
-83.80509637426432,-2.5608588378147177,-8.979679687943205,-53.395633010436185,44.08304490244839,4.229520953810522,0.22747896341402682,-14.142903144421089,93.16942133807457,2.0339210291283574,0.32273110620146755,108.71293930609089,26.14535728113201,-2.4402453889844216,-0.38731243244669666,41.80403944836593,39.70508209397709,13.952563761326141,-4.267806071401364,4.217031806621163,95.21484375,-83.49609375,-35.15625,40.52734375
-84.81003743059829,-2.7355349532751343,-9.285606299467009,-53.351776224154364,43.24347651479868,3.9863545933917925,0.13412566934111683,-18.652616659095283,115.84909283593164,1.7203233321950708,0.27274231505913876,106.09244166678788,91.95295213343893,3.6151151520788627,9.162567220998751,105.58051020013151,-107.96184784643415,8.618467930692901,-7.9895602247618465,-147.64586324891673,-1000.0,-85.9375,-71.2890625,-1000.0
-85.59398948360733,-2.9207249519667116,-9.553251330128491,-53.06949702442972,41.77242737712433,3.696777215166571,0.02027352908596975,-22.328755724097753,129.08676155815354,1.3235469851780328,0.23654906760001018,94.95139418879312,137.32970456954604,6.496946598135806,15.83354276275021,143.72424654940156,-111.26184489427236,0.41451013441353285,-3.6443375493303307,-125.00655550528124,-576.171875,-47.36328125,-17.08984375,-479.00390625
-86.17917648722367,-3.118187860329672,-9.782542808119768,-52.58421053375501,39.7043697210746,3.3629786494510583,-0.10984649213006799,-25.08932839289957,131.49511395065934,0.8402473139992365,0.2183878423238824,75.63775697738596,164.09468396893706,5.7947582086591485,15.923925854180185,160.22196394157774,21.744189571423085,-5.015122765272054,5.165054529180273,36.45104194524684,-989.74609375,-35.15625,30.76171875,-931.15234375
-86.59499695625308,-3.3295597632239047,-9.97328745206492,-51.93786069017979,37.06190163069965,2.9879965947527025,-0.2503768402010199,-26.903231699248302,122.64895308756768,0.2797635050349774,0.22269430548720814,49.24796984708238,173.39885107771536,3.4053151598906353,9.264718850545389,159.8558978978089,127.90776717031423,-5.980225959949862,10.949944788146055,150.49362631506426,263.18359375,-56.640625,-13.18359375,249.0234375
-86.87316317338887,-3.5560847403014075,-10.124794286674138,-51.174204010423054,33.87308806421995,2.5766124520830354,-0.3930388949533585,-27.773678743869038,103.1980605734217,-0.33190110963772845,0.25628914241445183,17.615671435128498,167.8129997770119,1.890147033200727,-0.795953896158662,147.6778960475748,83.20476656084654,-4.596314837425336,8.701315973334784,92.8161946091789,-1000.0,-63.96484375,-33.203125,-1000.0
-87.04463893882085,-3.7987612808682223,-10.236159606525373,-50.336482821554384,30.182137505671523,2.134823589210983,-0.5285723133737665,-27.7288822812507,74.84008184181529,-0.9557711316415931,0.3223325967616473,-16.815380399225738,149.20283544733832,2.4441809980479077,-9.844047883061062,125.50664268504055,-63.28061705513729,-3.4903503692313027,-0.6928880720726835,-69.9252497972931,-1000.0,-79.1015625,-8.7890625,-1000.0
-87.14183203385491,-4.058608560202013,-10.306608888463167,-49.46970979053381,26.042492813757768,1.6689179774287783,-0.6483300035958385,-26.8268926692553,40.12238850803673,-1.5466716645747716,0.4148138699758871,-51.24168517380391,113.98898656296605,4.173793278951693,-14.728511490454963,88.58684858443087,-152.7070682662423,-2.6457564306660273,-10.914114861864938,-162.4072940689424,370.1171875,-73.2421875,10.7421875,470.21484375
-87.194432324016,-4.336798683012315,-10.335427599827081,-48.61590928613219,21.52943379418262,1.1850107408032395,-0.7444881557980194,-25.137555852279547,2.2302819654604678,-2.05905614119234,0.5196320782273881,-82.71319591996813,61.064207135043034,5.038961363624536,-14.389064479554143,35.640716088934184,-86.12776676474246,0.18652617473489508,-14.124227264445537,-85.01056153683118,591.796875,-78.61328125,-8.7890625,547.36328125
-87.21859532134478,-4.634672881028281,-10.321961190474072,-47.80311829216291,16.77100219094257,0.6889841416526331,-0.810425004303063,-22.70655131673249,-35.22737219648872,-2.451523594027852,0.6162264116517485,-108.31288695269077,0.905879696253735,3.4583631325161504,-9.825712109949247,-21.87170202958421,76.20024741612573,5.720714981606178,-6.937003618339621,87.99146102856837,-929.6875,-98.14453125,-75.68359375,-966.30859375
-87.21779130867525,-4.953762119881502,-10.266171006174687,-47.046812822001684,11.937814330251218,0.18643545748988805,-0.8427322088590508,-19.56210711268555,-68.6250243918481,-2.6910195035328073,0.6745245099621154,-125.49988625676416,-56.50183112856195,-0.622224101499098,-3.6872235124407817,-73.2855794175476,171.3429868301736,10.42736836995685,5.933664999135619,179.85406710872834,-1000.0,-80.56640625,-73.2421875,-1000.0
-87.19539097992643,-5.295701535461168,-10.169266004602887,-46.362644185872334,7.194660528439564,-0.3170300778749689,-0.8431569128332329,-15.75776193134155,-94.84973679058871,-2.755117846726948,0.6540125098973373,-132.5381901364715,-115.29055296861044,-5.61727366507324,1.041632711309487,-122.91405768129968,95.96660744351263,8.9187160154438,14.814642813809698,88.49704393831107,-122.0703125,-48.33984375,-12.20703125,-59.08203125
-87.16063262901132,-5.661822092170629,-10.033535040548715,-45.768329159059995,2.675600198278851,-0.8145427104459331,-0.817668183141311,-11.378084822343332,-111.66730682233036,-2.6301932314253453,0.5145781929719675,-128.69617201454298,-181.4661982792194,-8.985408355039667,3.077880777340603,-175.03957261377963,-78.63504166444645,-0.18690284909778093,13.18559094751885,-97.65533353412133,-985.83984375,-33.69140625,22.4609375,989.2578125
-87.12614258629858,-6.0526103187891245,-9.861521443772101,-45.27142042565223,-1.5118000082797374,-1.2964812000454786,-0.7733198757617057,-6.499153691525146,-117.87769503908726,-2.3086651619997878,0.2342285965049495,-114.18233465960039,-243.51898793081682,-8.573963899748533,3.7159398712722393,-212.34623925849928,-171.63366032367642,-11.316684016695238,2.8790763220358198,-181.87084118432526,-305.17578125,-49.31640625,-23.4375,-376.953125
-87.1064500698477,-6.46749674709983,-9.655603412174411,-44.86427603206617,-5.284241977882398,-1.7502865395664908,-0.7165080981725289,-1.174483093099521,-113.36836382279613,-1.7910075657146256,-0.18183993769566698,-90.08977440509476,-273.2892365907377,-4.135440336214762,5.204756858330067,-207.31088076126764,-84.28287840385096,-15.849862924035536,-8.537645311938947,-74.13951744164851,-1000.0,-65.4296875,-52.734375,-1000.0
-87.11807172759514,-6.905032957798199,-9.418300014586922,-44.53486980308682,-8.584355362701823,-2.1616997159987426,-0.6536231752106785,4.527855874976633,-99.0731592093926,-1.092107509360111,-0.7048127611340067,-58.43659129932489,-243.29740579985346,2.142333396338691,8.258931339844422,-153.69276720371099,90.79488502511118,-9.48206691661617,-14.232232011592243,103.09388824889577,-274.90234375,-39.55078125,-5.859375,-235.83984375
-87.17858971230544,-7.363010431033435,-9.15246100680778,-44.27739662368653,-11.378039642319314,-2.5158939646490475,-0.5913141902674477,10.49185071688278,-76.81755425178439,-0.24523490778264034,-1.2873751167847618,-22.086840173823493,-144.74238345307535,6.872002064985117,11.446245556475748,-73.75819640856139,166.60925265529693,3.9523718721994068,-11.669776178394724,154.5666099181435,-875.0,-12.20703125,20.5078125,-863.76953125
-87.30430256100402,-7.838295923820001,-8.86096103739297,-44.09259938885425,-13.646661722617928,-2.797755072081098,-0.5352012276280668,16.556854837148602,-49.070174505724054,0.6995206555399811,-1.8657021744179851,15.553944973776867,4.426810852464405,7.608891199137703,12.588291401670801,3.6995145593837466,61.000993140287044,15.322345494451127,-2.386624863205462,35.377397647320684,168.9453125,-42.48046875,-42.96875,145.01953125
-87.50707219155503,-8.326813016847863,-8.546681090795,-43.98396971476255,-15.376850451884021,-2.9926745352519633,-0.48960969909182245,22.53634969543899,-18.641411171146153,1.677216376378533,-2.367399814023497,50.94790086605173,164.52507316032853,4.069076208385051,10.099740814913421,64.15798769387126,-116.01858690576282,16.74974678892171,8.818690555279948,-106.68790715876455,-1000.0,-74.21875,-86.42578125,-1000.0
-87.79415311332994,-8.824033911223115,-8.213165379494308,-43.95695921200504,-16.560296675724565,-3.0888999638418104,-0.45946445950742526,28.228239576900467,11.59474313092789,2.6068602934356244,-2.7278636331190604,80.80458406132088,286.81327785757657,-2.225160309685735,3.5007419742887267,108.71414403435236,-178.887479489758,6.968202440301183,15.206948972520436,-110.3759579580475,-714.84375,-89.35546875,-68.359375,-622.0703125
-88.16960835652054,-9.325626846994172,-7.865123863467532,-44.019024965882224,-17.198639408528077,-3.080113878833654,-0.4515345617753104,33.423383507391044,38.94941291405938,3.392444721958547,-2.902520422523814,102.41719640524374,331.62761743628624,-8.88191457267803,-6.02849314759143,144.55135810811194,-58.560506423935905,-7.597273352137621,12.048315690649236,17.252888770488433,895.99609375,-67.87109375,-24.90234375,974.12109375
-88.6277642134213,-9.827719029050114,-7.508110661606855,-44.17163711901338,-17.28349598145806,-2.9664074180139557,-0.4729284462953795,37.939302390554815,61.22097255385938,3.932514998647464,-2.8665422552400615,114.01475679407876,290.5360085983701,-13.300709302991729,-15.234214365827434,180.10632535677783,131.98839818616403,-16.825878852609858,1.013921214619765,122.08351353296364,331.0546875,-66.40625,-22.94921875,296.38671875
-89.14455020826016,-10.326792954521983,-7.147861117448389,-44.40125426440612,-16.772400816431894,-2.753741052930907,-0.5285850367817283,41.65396935133119,76.94163631039858,4.136124090926018,-2.6093185030422243,114.99902029841509,190.21286110875428,-13.311344246973269,-19.876296910328513,217.38693428685053,210.0345445814102,-14.106706287467269,-10.343405576995465,81.3377288718514,-1000.0,-81.54296875,-53.22265625,-1000.0
-89.68426302624788,-10.819557569258395,-6.790021112616873,-44.686347923082494,-15.616250118662247,-2.453064236870807,-0.6202333404395564,44.485228745541484,85.3550165778495,3.938514116160345,-2.1334569929056615,105.85809005143462,65.64667073598126,-8.07873485358843,-17.25917308191658,235.7805590558977,91.6386840745428,-1.7180786475318626,-14.592463615847471,-68.77861228976653,-1000.0,-49.8046875,-42.48046875,-1000.0
-90.21451839024056,-11.302786216019063,-6.440166884620749,-45.01186280662415,-13.811044817401415,-2.079138045172533,-0.7464830433892912,46.347100197742265,86.24995948821464,3.314258570970273,-1.456796449481834,87.9033291576649,-62.07224644017637,1.3220776028028587,-8.106699544410061,196.96111054902306,-126.98238849510817,10.704774709064527,-9.95113585802659,-171.612982264913,250.0,-29.78515625,-12.20703125,358.3984375
-90.70687252724058,-11.772991026125856,-6.103614512662774,-45.36860199247801,-11.399963715988077,-1.6487418818035255,-0.9024344676976517,47.15636780234797,79.94165741574464,2.2872547405904244,-0.6111607817815455,63.12789919813175,-174.94209178755716,12.188217113646433,3.824288037688782,83.66934036995029,-242.7363969991142,14.01899219408586,-0.35499096396408414,-101.39741287811975,747.0703125,-41.015625,-17.578125,677.24609375
-91.12555662043087,-12.22620640848889,-5.785146074723442,-45.741378233629206,-8.436194662250045,-1.179238097321343,-1.0792568805862215,46.87414352923952,67.34999293704678,0.9328506235465948,0.3603714977464408,34.132150236377214,-243.64944173552163,21.00149004575089,13.696102661088844,-72.15834036222694,-131.8148677174066,6.860109354327868,8.405604357180437,104.16681841900993,-781.73828125,-51.7578125,-62.5,-855.95703125
-91.42676001696519,-12.658120739204172,-5.489132079698224,-46.10865146249988,-4.980155420815858,-0.688279675197971,-1.2652429955818878,45.50783756405112,49.89607322992618,-0.6305740679029003,1.4022847182415659,3.850882790814674,-244.2079956045128,24.45330380712238,17.579136681441323,-210.90508939189664,112.0815624817541,-3.9579514697166402,12.098586670302828,252.0861783899875,-1000.0,-51.26953125,-61.5234375,-1000.0
-91.57105665921345,-13.064315443028852,-5.219853936816083,-46.454671602958356,-1.1370214714835574,-0.1938503582322729,-1.4475874812368847,43.07273138948902,29.220123310565402,-2.256166955352477,2.4449832453114797,-24.87736418595394,-183.41224291708446,20.71115894493551,13.981763999774975,-288.00458218621003,251.14359010305515,-9.669870409129686,9.444087689200742,169.2224986856607,-155.76171875,-29.78515625,-16.6015625,-112.79296875
-91.53089668385019,-13.440285666739166,-4.981403563724881,-46.77554770216164,2.925956459988682,0.28640462152600543,-1.6128307953777166,39.575123853202506,6.976110725407436,-3.7837284415655694,3.4103839498967825,-49.62384613501737,-94.24446266764906,10.511139879914937,4.7421150024519285,-290.3433948347659,145.07085430388594,-6.686751933839901,2.2506193518342545,-103.0596134006526,-926.26953125,-17.578125,-15.13671875,-940.91796875
-91.28874817893718,-13.781313765405928,-4.777287769724043,-47.07631084709978,6.99590535319017,0.736268771770664,-1.7464283431559675,35.02575202633373,-15.23746627449191,-5.054860909436254,4.2220410478867185,-68.51384485889284,-10.038346723049044,-2.8451571823580726,-5.654323021836519,-227.68963558012052,-96.61717768798403,1.0871105235375496,-5.641793394316283,-315.66327214231137,-150.87890625,-46.38671875,-64.453125,-215.8203125
-90.83465305242224,-14.082588018054336,-4.610442550896891,-47.36838677863055,10.834675717838966,1.1411807997403536,-1.8337048717494504,29.451784892070254,-35.924992048070344,-5.931014756938794,4.810495810081745,-80.3144930273376,52.22115299955101,-14.989240485744036,-12.57479121800084,-122.6531561524845,-228.58349859510727,6.157294436625102,-10.511830818976573,-249.34635526966198,-1000.0,-74.21875,-73.2421875,-1000.0
-90.16597819212134,-14.339708592779305,-4.483634781370561,-47.669115322344936,14.193184646891494,1.487215254072618,-1.8619905254014346,22.901602160967187,-53.75685579766277,-6.313393684309668,5.114486463502352,-84.48449207999674,91.77385497796058,-22.551592738347555,-13.718197163456344,-3.840515788805043,-126.66764045279545,4.160186833194141,-10.364777683291633,54.867408602416816,-373.53515625,-79.1015625,-40.52734375,-304.6875
-89.28777326129591,-14.549165807120794,-4.399474775740355,-48.00101038645683,16.824292631200862,1.7602468564137494,-1.821356773077462,15.449489669749907,-67.62897529962265,-6.157100607587328,5.087263905802874,-81.15962620729567,115.21552997532936,-24.25017009662434,-9.572452503565065,101.01576836190611,90.23233226775001,-2.220702465207427,-5.049383594450922,320.9444183531352,-898.92578125,-43.45703125,16.6015625,-874.0234375
-88.21132653836338,-14.708314930311985,-4.359762881749449,-48.389323824167604,18.501080298255584,1.9468114924924633,-1.703153526964993,7.204261101152855,-76.69190229020728,-5.472921630305154,4.70943844966956,-71.0666506154697,128.65973204780934,-20.50112532832794,-2.165714757397027,172.0535862216845,195.7448873173539,-5.840965382027967,3.710000844622588,302.16352077128874,216.796875,-25.87890625,8.7890625,206.54296875
-86.95014697493865,-14.814957073154716,-4.364881788248252,-48.85801145154521,19.04156986334384,2.0361746165783754,-1.4987717845475366,-1.6794255039483121,-80.34765213210561,-4.319162120060774,3.997523690171251,-55.38399170369575,134.59545877090136,-12.554343444188772,6.016427073064023,201.51413611349176,93.37771140321118,-2.334867160930651,11.618763100709318,18.82494982422637,-1000.0,-40.52734375,-44.921875,-1000.0
-85.51876419126528,-14.867067756697407,-4.413985194299452,-49.428658494364164,18.321512587378027,2.0217420958508763,-1.2010072662306395,-11.002091243141086,-78.28181164250343,-2.791646690716275,2.9990058336128715,-35.61845170177368,128.94197470187584,-2.2230028315757275,12.205096957332273,190.5217137352376,-97.12987713888914,4.911835319446053,12.874556919778037,-267.6205930760516,-903.3203125,-48.33984375,-60.546875,-745.60546875
-83.93479261109903,-14.862885076045632,-4.505679618064657,-50.12158761212571,16.273903425939086,1.9011159106480726,-0.8068476867601323,-20.52976736500738,-70.52675375337132,-1.015309178759045,1.779629398486426,-13.49477799475228,102.01915583068289,8.027109011957975,13.771482608971017,144.69019463250962,-177.434776955725,7.797743746600207,4.8656806119776626,-306.829209644811,673.828125,-41.9921875,-17.08984375,856.93359375
-82.21343071339592,-14.801055586789746,-4.6383089499765555,-50.949096166152984,12.909339956342459,1.675801305442065,-0.31868281718368685,-29.9817774507466,-57.42444922929473,0.8657324297258628,0.41534472560614216,9.246035555758922,51.89620572921668,15.51549671107869,9.669121035455335,78.81026465491531,-70.35478011884537,2.2009215477063813,-7.421085390189994,-82.29989250742445,390.625,-28.3203125,-17.578125,373.046875
-80.35752664607695,-14.680631207851334,-4.809815073397188,-51.905995470149136,8.344962142410555,1.351236159882114,0.2561283791337037,-39.01430643328306,-39.54140865565051,2.7011347212889416,-1.0105908987972665,31.048855794029414,-7.689758706344445,18.338790203660675,1.5052485093932382,15.602040442492285,112.02223817553696,-6.922186787311733,-14.014196519796627,190.99489510962817,-1000.0,-50.78125,-77.1484375,-1000.0
-78.36134108663997,-14.501095486314087,-5.017903562511248,-52.97534120725139,2.7838356584437176,0.9365655471868477,0.9049749926860728,-47.25624883938449,-17.745974770418563,4.346980281113563,-2.4139938132492778,50.53299012407678,-63.60710790334405,16.099956045351295,-7.28319541051951,-34.43470890382279,180.71745326477847,-10.174609520691083,-9.179221799524983,268.55912001357734,-1000.0,-54.19921875,-74.21875,-1000.0
-76.22391719477419,-14.262477378723519,-5.260454290444549,-54.14284272594183,-3.5384278411746632,0.44400183451440906,1.6092563798031352,-54.37207577242757,6.642949620908479,5.676492738282528,-3.7179579039198205,66.38298973351635,-117.29969632778383,9.978590340473996,-13.26162752751293,-82.2670342739636,59.112967178461844,-3.5204680115197426,2.494733507369864,97.54314555241004,45.8984375,-17.08984375,-11.23046875,228.02734375
-73.95012660126216,-13.96527894950145,-5.535388323736461,-55.39724765842709,-10.36728026823726,-0.11133828862916141,2.3457023805819572,-60.07661566668519,31.920641946273545,6.5910873434846575,-4.853348095395953,77.43003218430121,-169.23528659475633,2.3668010064361895,-14.119519860735519,-136.12991232765143,-129.412415509958,7.234472323188347,10.53217430730695,-137.4988620902944,770.01953125,-23.4375,-4.39453125,795.8984375
-71.53929386503766,-13.61030282654156,-5.840129522017946,-56.718467216577565,-17.40467114350003,-0.7114201772084502,3.089134818773538,-64.10948645127534,56.24887957056653,7.029510900579172,-5.75470670522803,82.87201606773655,-200.29378590967806,-4.00792679980473,-9.230748243235531,-178.21958741023468,-182.788693550382,11.897793397648764,8.661779096522466,-200.93527675396797,-707.03125,-74.70703125,-69.3359375,-715.8203125
-68.98261877666015,-13.198858649647484,-6.171589278828676,-58.07598775010841,-24.315699595641473,-1.336602384565099,3.8135783147418336,-66.24275582315646,77.81284394929226,6.9689930412832855,-6.363468837429742,82.33741659878014,-185.8454582056271,-7.440230220916758,-0.32744605621535844,-180.19839530158777,-41.731549072897984,5.646133329686335,-0.13976890704617312,-50.553338974522,-1000.0,-76.171875,-62.5,-1000.0
-66.27401241992727,-12.73318314023994,-6.526606503643103,-59.440998288935255,-30.77860248654653,-1.9676181098245449,4.4919863093523835,-66.32996325461593,94.83547876994176,6.421225612046399,-6.636617507311924,75.77011625410127,-124.16102089667065,-7.954696317619903,8.759498130840642,-135.01191423979455,138.72033310044168,-6.16074102951802,-7.423078831077897,125.58674707764217,-191.89453125,-27.83203125,-10.25390625,-161.62109375
-63.417586335877,-12.216359810666425,-6.9019137077671315,-60.794213228333795,-36.521040691779426,-2.5858874003780925,5.097563501689352,-64.3355661835535,105.66321349647585,5.432037912221814,-6.5488836529693195,63.375289097104584,-38.76326383823765,-6.529623642235443,14.16723966461336,-61.432657278010815,163.1178821408695,-12.560577640590816,-6.915854501195905,129.13691825198168,-916.015625,-10.7421875,12.20703125,-891.11328125
-60.42595383444471,-11.651767249398803,-7.293633485314538,-62.12401316140225,-41.32355124618081,-3.1723534514257863,5.606511909047647,-60.32763580360819,108.97525206188077,4.083404146683697,-6.089335215089864,45.68354319108624,42.515529726083905,-3.9518770959802234,14.195309737116999,15.522108117300421,14.236755235849808,-7.26513823539041,0.39603634845941804,-26.376111517676176,-80.078125,-42.96875,-46.875,-63.4765625
-57.317148850080216,-11.042850739706013,-7.697309980086058,-63.423444168379476,-45.01617579452998,-3.7074682905331446,5.998875438391108,-54.46268890374049,103.9887073890542,2.487713850256176,-5.264627203327049,23.60838696897907,103.66860285920374,-0.7816996824347584,9.486409843068989,79.74259864638155,-136.56687895080978,4.798279849045459,7.1874695171977745,-145.36588191214528,-1000.0,-79.1015625,-110.83984375,-1000.0
-54.11411383237059,-10.393502158846069,-8.108751474342576,-64.68981288397917,-47.48122207974772,-4.173149283991665,6.2567203186121505,-46.975432468675166,90.58607151326207,0.7723647719103587,-4.110181379429014,-1.561753044579517,141.68582243145366,2.0022861785346806,1.732774392493163,125.4560222762477,-127.66231074780508,11.845715247451011,6.390104891076185,-83.29231712363385,-531.25,-69.3359375,-69.3359375,-376.46484375
-50.846118474796846,-9.708434941666427,-8.524611285220898,-65.92562186478962,-48.65975811022576,-4.554591306820022,6.363243623142564,-38.1696760442121,69.3591442700268,-0.9356642553303006,-2.6942562930784177,-28.225249847553375,159.2336139327843,3.1549043618887147,-6.91786806718958,151.6970905457787,18.45023501746196,7.102277746701831,-1.5302293406867367,90.59976604404325,-979.4921875,-35.15625,2.9296875,-891.6015625
-47.548270106708934,-8.993001759495804,-8.941885034142844,-67.13761119842862,-48.54945793432811,-4.8401448816797075,6.305343831301752,-28.400682430029416,41.607218627452625,-2.517606470872261,-1.105826783449239,-54.544518247419305,159.68757976091743,2.238801572878002,-13.520145742603885,158.85431433824348,133.39076771865584,-4.068716361622696,-8.233345256406862,177.63284344288405,246.09375,-28.80859375,-2.44140625,238.28125
-44.256694211786666,-8.25272246191741,-9.35706052083557,-68.33273910749709,-47.18704240685728,-5.020220161575467,6.077019827797622,-18.04668249843486,9.30809508517468,-3.8665996918060395,0.561969231847733,-78.52773544013552,147.34393916217653,0.1951582698652365,-14.988214787323587,148.83422577745205,95.1487329518499,-9.932926050782692,-6.167097179366967,73.94030708779295,-1000.0,-57.12890625,-41.50390625,-1000.0
-41.00593366543977,-7.4931134118138125,-9.765985173152007,-69.51686896114383,-44.63743981729326,-5.087169630182287,5.680061219078574,-7.4893665077876435,-25.018739099959355,-4.894381207569736,2.2184362637581496,-98.17972347591869,124.23599994243567,-1.4426860238331691,-10.202830467490577,122.23795126574542,-47.22677060141071,-5.034659672383949,2.5840418370725544,-118.67227673958227,-1000.0,-60.05859375,-38.57421875,-856.93359375
-37.831157900977374,-6.719812352638869,-10.164212174231965,-70.69670823887326,-40.997792667549604,-5.036082581017121,5.122882909825154,2.8946770345915507,-58.56801239395233,-5.5399299428644095,3.7754140384258927,-111.70853603164431,86.29806889193942,-1.7573365782376686,-1.2767473077362248,76.61113553768233,-138.99322647283861,4.354450340264028,8.225229029307178,-204.03809353313233,445.3125,-32.2265625,19.04296875,722.65625
-34.763847319143785,-5.938536711894116,-10.546975098530186,-71.87404920995945,-36.380228813540114,-4.864966771786815,4.420292886845217,12.765671743012359,-88.4658357507963,-5.773651980356307,5.151513707409296,-117.64233593640006,32.494736483102294,-0.8118425575458027,7.666281409690871,16.158497206868624,-83.10959333667041,7.8107907738756195,4.530275854321236,-91.51895548811228,464.84375,-32.71484375,13.18359375,470.21484375
-31.821572573189812,-5.154866376055078,-10.908928196280113,-73.03572220303828,-30.87759861240151,-4.5743144851884985,3.5937126802308237,21.86188672643171,-111.94807019845608,-5.596981615251753,6.278286276913677,-114.89890807615062,-26.228540604825536,0.7135002080477089,12.831986983391515,-43.20837317461595,65.21648155657275,2.2317665236379116,-3.9808256823831654,114.6243769032915,-1000.0,-67.87109375,-48.33984375,-1000.0
-29.0098898496491,-4.37426290845725,-11.244414998068796,-74.15783554745165,-24.570588474150423,-4.167378731552464,2.669445891919839,29.990437569791442,-126.68933121940596,-5.042323292660488,7.099345440457317,-103.00888875125132,-79.59971278381137,1.8599624386273006,12.174463994652207,-91.11486791400456,152.3488238811656,-5.561033897224782,-7.549079246614818,212.72601362019319,-1000.0,-64.453125,-41.015625,-1000.0
-26.33482867346423,-3.6022462223370035,-11.548127616543752,-75.21997081724027,-17.568340753857225,-3.6508479406002974,1.6756238698636354,36.984908796092526,-131.2024962731624,-4.171981182968325,7.5656111014757075,-82.38492382461037,-131.00062768623312,1.7850292280739792,5.860589138693559,-134.970991867553,81.3554092658712,-6.864759870892471,-2.3071430161866715,102.40847232036809,-66.40625,-24.4140625,-25.87890625,99.609375
-23.80449615707544,-2.8442471156556355,-11.815441338032894,-76.206396744863,-10.01182788137809,-3.0343636223588693,0.6402739437714274,42.70512897400411,-125.00630071805352,-3.07059678124841,7.636229011798223,-54.329747702220374,-182.7651315555836,0.43999117564693396,-3.6196186238022556,-180.45333459926565,-77.70426874975334,-0.2533707378249582,5.890967288495111,-104.143651723451,890.13671875,-26.3671875,-41.50390625,933.10546875
-21.417447222949885,-2.105218376812472,-12.04242756563909,-77.09375309397143,-2.034731233242556,-2.3292262335891434,-0.4094743133146019,47.07825203412711,-108.54018346923823,-1.833478207441362,7.2845788249409935,-20.8002221558745,-216.59742522538224,-1.2120545255967192,-12.201297580735076,-209.38558061479822,-153.3580653296662,7.315945889858707,8.19100043287984,-191.56554560790943,-519.53125,-44.43359375,-46.38671875,-513.671875
-19.158663598304074,-1.3895169269834962,-12.22590557211812,-77.84762624352435,6.249190261899311,-1.5479819653045377,-1.448199899371474,50.107145056627324,-83.09386233365466,-0.5581427500887591,6.5039696909764055,15.773904341489223,-206.1631221060078,-1.998808617597078,-16.039683685081965,-194.09829731513366,-63.69040288589459,7.720369293665517,1.9382289276213558,-75.38050898094932,-1000.0,-51.26953125,-38.0859375,-1000.0
-17.010276757085006,-0.7011110175065999,-12.363495459994327,-78.43426085387657,14.711326904404165,-0.7050125298676508,-2.452877196969634,51.82839119682493,-50.82301879402789,0.6601440301269677,5.312488830482166,52.54841823970132,-147.15441202892717,-1.5460582218776981,-13.288890587073425,-129.88101057932903,86.47923002315095,-0.1082411404397926,-6.907907508600099,103.6389630143005,-212.890625,-53.7109375,-42.96875,-170.41015625
-14.960904673171811,-0.04375690678286716,-12.453516206170494,-78.8300629400025,23.18088153325251,0.18308062472609637,-3.402947719279098,52.278911977346176,-14.639917802304426,1.7332343457369643,3.7577207214573813,86.42025142356106,-62.499202365382644,-0.43135825542590467,-4.823384624470629,-40.49034255452842,128.30361155860066,-8.828050666673747,-9.840193562525046,144.79414803683545,-863.76953125,-37.59765625,-5.859375,-847.16796875
-13.00510666526545,0.5790695668506322,-12.494698609614215,-79.02077101292431,31.452504253961884,1.097986073450901,-4.2797391938402125,51.497663868263274,22.103655628096117,2.587453379538937,1.9203285143853028,114.35417118033435,19.2557006876129,0.5085840578978896,6.313961666180759,44.199841443565134,25.31937752352567,-9.642480248575811,-3.9633973183488385,17.349555457803493,130.37109375,-24.90234375,-5.37109375,118.65234375
-11.13973920034425,1.1643831289630633,-12.485912889607725,-78.99779489424144,39.30558614049442,2.0206986638392457,-5.065941054457245,49.5369904066035,56.01282737362383,3.1711819606508818,-0.08692773169988212,133.74338182332076,82.89006158431496,0.8898180153236456,16.17820857405752,107.59818018765286,-92.65860158686895,-1.050094396846741,5.454137649788201,-116.03941164460956,-1000.0,-47.8515625,-51.26953125,-1000.0
-9.363532789073576,1.709743559991428,-12.42628648812278,-78.75761219645125,46.514022142793394,2.9320513862261213,-5.746333129864507,46.464091690223626,84.00426894380854,3.458390725165585,-2.1289401995137824,142.6919011230803,127.42184789875222,0.8297782253820583,21.154626686501725,147.95784689560378,-89.19520940095805,9.190216899691254,9.999813039741712,-97.75160098339205,-596.6796875,-55.17578125,-49.31640625,-434.08203125
-7.677174439271051,2.213098961362051,-12.31554519291311,-78.30407151759502,52.85491803136387,3.8126071068647405,-6.3091410120737015,42.353467071538674,103.61483987369854,3.4475639595048717,-4.063113752383533,140.1944037352782,158.08982068960944,0.5538320672155849,19.150741605255618,169.05562368461415,23.177272418155777,11.26396284043303,5.942386460832947,44.715616140199415,989.2578125,-33.203125,-1.46484375,-897.4609375
-6.075345037620253,2.672684305630358,-12.15400271701236,-77.64859759528927,58.14214268532772,4.642793382014821,-6.746135429836269,37.28661137177324,113.32327536825,3.1596012188074445,-5.750976480266138,126.25459518945983,183.19409823154953,0.21040931158470638,10.730904544029277,174.0638306627122,108.5962194490435,2.948080420766816,-2.407697855402174,139.9784776871075,266.6015625,-58.10546875,-32.71484375,257.32421875
-4.538083925344202,3.0869711350926106,-11.942430916124133,-76.80592728103453,62.258534496290075,5.403262107115917,-7.0522638919356835,31.36567616005023,112.75350284069852,2.634892884068343,-7.068518214876621,101.95041575789402,206.84677657643385,-0.12000221577932291,-0.9536251861548362,165.79618101668382,65.30379411086753,-8.05748908318981,-7.291502136935428,73.82891194780316,-1000.0,-78.125,-101.07421875,-1000.0
-3.0382645988627086,3.4544752915831154,-11.682467275339627,-75.79228037152279,65.13339716545467,6.074861883673592,-7.226882020833647,24.718029059354475,102.55940826838527,1.927732782798914,-7.921498078369094,69.35434386576662,212.18055058112657,-0.47550030648506425,-11.919028567249178,144.1915861244193,-68.99342506667111,-11.609006879426904,-5.348543795382486,-85.95750677495451,-1000.0,-60.05859375,-89.84375,-951.171875
-1.5562681836633732,3.7736443327341105,-11.377145333170017,-74.62767865738553,66.69758658446646,6.638945307376035,-7.275130175293538,17.486587449174493,84.14421101462965,1.1012828665861707,-8.258424416864692,31.303731988810128,165.07309071301816,-0.8624163539775095,-19.085333135452405,104.0964724732992,-155.84443248433357,-4.722075516085565,-0.05072953983958225,-168.73294972312766,298.828125,-41.50390625,-31.25,580.56640625
-0.07976431552693786,4.043101281510678,-11.03059551685857,-73.3307079162349,66.88830839464954,7.078833616081879,-7.206427747059226,9.84318429481405,59.50944803960388,0.22622195794777425,-8.069332351072008,-8.819858417919804,51.15235251044126,-0.9251738673825232,-20.592134957677796,45.71742822026901,-87.21178712107866,6.0452562954200175,3.3255061995404067,-80.60602987856122,575.68359375,-30.2734375,7.8125,580.56640625
1.407398296070066,4.262030279410118,-10.647076155089811,-71.9074015137857,65.68794500880698,7.38162610659378,-7.030842488685776,2.0173304802863945,31.178116397303945,-0.620238310180657,-7.374408580954336,-47.31518395493052,-97.51616549702993,-0.055031981734111744,-15.688041937482003,-17.40085451870712,100.44461734040442,11.00153699739837,3.157483517318122,99.32361913009514,-925.78125,-41.50390625,-26.3671875,-931.15234375
2.925269587316423,4.43036702087029,-10.230372053003027,-70.35333817437832,63.12499952917127,7.539190549923073,-6.756873235605895,-5.721213618596704,1.9360507129767452,-1.3592322404859185,-6.216946113758256,-80.58588878049635,-223.57957593368906,1.9449649215121563,-5.438716182714512,-73.77833270969906,232.84228084892712,6.032950078972942,1.241498255550755,191.10923678778173,-1000.0,-31.25,-41.9921875,-1000.0
4.486337628487973,4.54884255699278,-9.78386265961532,-68.66720704162513,59.237854533854474,7.548475815560728,-6.391615633776841,-13.116896299916164,-25.566121694855084,-1.9178111863118708,-4.664163790682508,-105.67014729181705,-285.3970771569949,4.396554219569432,6.692096385172137,-128.49923730120568,153.69811984563208,-4.075165184520121,-0.6979978727620266,93.11874266511316,-130.859375,-3.41796875,5.859375,-38.57421875
6.093648515145868,4.619107592971796,-9.310557122031739,-66.85645652209688,54.070725502257226,7.411866154418907,-5.940983892616602,-19.954771487607704,-49.05567922386354,-2.2356849486512544,-2.806515693259303,-120.57906736561492,-270.19770054450095,6.050195779246009,16.014585411438702,-189.0602432744216,-97.20687724752177,-10.194289762001604,-2.1298218135059472,-102.246268974614,979.4921875,-15.625,18.06640625,-996.58203125
7.753035239521919,4.643783570452471,-8.812869912865427,-64.93445291643751,47.713855875616474,7.137075987159513,-5.409265819675467,-26.057303434698145,-66.67486370730705,-2.272154950591397,-0.7525941415542862,-124.41594195467569,-183.54092227253867,5.7269012475196135,18.92096426111896,-244.79486329579692,-289.42324972395517,-7.102895009488592,-2.381649389019192,-193.60569380610713,-349.12109375,-55.17578125,-53.22265625,-359.375
9.47904913699506,4.626052478522763,-8.292873807900952,-62.91939768699295,40.319862371809585,6.735421896623466,-4.800332482305077,-31.28524090768361,-77.06839680447756,-2.016293269140778,1.3720021086383951,-117.3981793802627,-49.20490448876297,2.6838884150360487,14.252320812767048,-268.26161377070196,-226.7811131515567,1.9435162023943162,-0.6877488597990985,-83.48531694111816,-1000.0,-93.26171875,-103.02734375,-1000.0
11.28506533932777,4.5689033963611445,-7.753190789876356,-60.83462851157135,32.06727723434715,6.219035287124543,-4.120805160055937,-35.541237123262874,-79.60892043121754,-1.496614163974396,3.4217699559360906,-100.78121207473387,84.28359160063148,-3.0834980688797535,3.3513392378403792,-232.78578567374535,41.49793024846637,8.613258851824561,2.1789139378665596,113.32377141802637,-327.1484375,-69.82421875,-62.01171875,-253.90625
13.17276109990087,4.474713618380861,-7.197502095052087,-58.70706293845586,23.1234036940984,5.599327680529651,-3.3817188120591894,-38.765951565896735,-74.53794326458542,-0.7807732736738283,5.237798274583947,-76.66209442878937,160.90697210070823,-10.224920598061436,-10.07751201984316,-129.86521103563084,267.33608246132974,7.579591199853819,3.9774058973215176,189.23429232259917,-901.85546875,-32.71484375,-18.06640625,-868.1640625
15.131816662790552,4.345487752052127,-6.630147088072282,-56.56410139862974,13.642049564326205,4.8877063706612125,-2.597032239720527,-40.92836476698892,-62.885490331581394,0.03746658339390643,6.668223295072548,-47.696934683627475,152.83397433292032,-15.787144311296395,-20.542637200626732,22.659813699338077,256.1278334656362,1.0502740743331611,3.1173299188180077,62.950138310725585,155.2734375,-57.12890625,-59.5703125,157.2265625
17.14464911117726,4.183218997622809,-6.055604506022845,-54.43019920479553,3.778014146901587,4.096693944684521,-1.7817021600910745,-42.0150086343617,-46.25704257346518,0.8550044937626212,7.5896903260111666,-16.783105697024943,79.3984297037865,-16.441691375412233,-22.96033066529332,184.7276446755667,45.760469879397,-4.664088125421419,-0.12775681389093813,-135.47593054811497,-1000.0,-72.75390625,-62.5,-1000.0
19.188253976194414,3.9899072835586407,-5.478428092597446,-52.32643722369576,-6.308146772885036,3.239910485884557,-0.9512163803300389,-42.02906142430863,-26.613380389375198,1.572287709373043,7.920577086241816,13.222269991127515,-7.906673928851606,-10.662732031793572,-15.551125027818605,306.545475012089,-161.11003839741318,-5.89186776601329,-4.140082040968514,-201.2345004917035,-782.71484375,-38.57421875,-33.203125,-632.32421875
21.234012450002258,3.7675770053187505,-4.903180889468442,-50.271155899235545,-16.452320734601926,2.3320262044185545,-0.12111464018931885,-40.9927605488539,-6.056400017211803,2.1050293482722617,7.630112703542585,39.74754263331626,-57.847460934708266,0.12059243427139699,-0.9568608038075663,347.679337439928,-206.47831418327692,-3.8406119773853247,-6.579727706333523,-64.03475345742994,815.4296875,-22.4609375,-23.4375,963.37890625
23.2551920499675,3.518590132785733,-4.334069921210212,-48.2726066319079,-26.46576071091754,1.3895810413602971,0.6943992320409504,-38.92496557432469,13.462778177622102,2.3965944379083925,6.745523868257483,60.792852817029505,-41.17136398913453,12.219145790150456,15.149208598876548,299.8855696744461,-99.76707378752036,-1.2098010373284556,-5.116411578220327,146.82939264207758,343.75,-27.83203125,-16.6015625,311.5234375
25.237166755024376,3.2458908346295963,-3.774641618390415,-46.32037939375094,-36.10898639268314,0.43143186938034356,1.4835142686230232,-35.81755047863286,30.411226031219506,2.42518258154044,5.3518436871804225,75.14116686478515,38.70725736093561,21.274547762388515,26.610694187223586,190.44712726967316,34.33250736090512,1.1440026236811627,0.6502251006075487,230.46098375985596,-1000.0,-49.8046875,-45.8984375,-1000.0
27.17275903301409,2.9528613300549975,-3.2278491414729067,-44.392804330659644,-45.116831684088915,-0.5221776873663537,2.2365468370864954,-31.664913742558024,43.69658783711811,2.201886076725179,3.5811794002024935,82.29095153691675,137.44760687503157,23.815637992135294,29.10053251506191,54.98484605218447,87.8349841428354,3.6016032673811003,7.5009359299589935,99.23783249216231,-1000.0,-51.26953125,-52.24609375,-1000.0
29.048934804379794,2.643039726775819,-2.6962861178650956,-42.47194467506039,-53.25089670358213,-1.4510264935285173,2.945091711681067,-26.515589752963113,52.55148256527537,1.763758055808149,1.5957908870882784,82.25513267083889,185.93463855683353,18.582333554152388,21.64988456753038,-83.88509421188817,56.43079789501455,5.463287821113847,10.10753697594668,-137.20016392653835,198.2421875,-20.5078125,-3.90625,347.65625
30.847097546967934,2.3200885648770493,-2.1821197384427613,-40.54356933095559,-60.306243231655905,-2.3355077513313662,3.6021206965985515,-20.471791258600376,56.56388125121724,1.1675919199929308,-0.42759593250431266,75.52119289556863,139.7745376362378,7.294900919581472,7.146791633905159,-205.06600194000404,21.297545690940684,4.814916138551911,5.598637032815641,-258.7514484408494,741.2109375,-28.80859375,-7.32421875,704.58984375
32.55521731186968,1.9878691091906306,-1.686849064656816,-38.58567081539534,-66.08035093441595,-3.1568775050342306,4.202581943363612,-13.65100115111388,55.80909673841672,0.48330719468926814,-2.312515605452067,63.11077167828709,16.362805312339447,-5.919750630431816,-8.817034318285584,-275.97186773345015,44.24158014728843,0.7404092705675273,-3.347793296165296,-137.8194856593127,-780.2734375,-75.1953125,-72.75390625,-828.125
34.16975982689705,1.6501945842794319,-1.2115220355650533,-36.56832742105034,-70.37646363567823,-3.8984897556040914,4.742489890694986,-6.184288862535278,50.806220896746545,-0.21699863408503264,-3.9022363291738857,46.458315504182856,-122.9277965816402,-16.513818550278053,-20.705558990335195,-271.4869570874408,81.47843464242196,-4.971305797277449,-10.46799611148248,119.59437489313669,-1000.0,-62.5,-62.98828125,-1000.0
35.684465305185505,1.310449973575267,-0.7572667215120512,-34.4663242866424,-73.04815288943212,-4.547314328554999,5.217104346327558,1.7466401543694734,42.29478854287536,-0.8703239717253879,-5.079407790442909,27.127922798977725,-220.17135124207883,-21.473495766376967,-25.488411474217294,-199.8542950106245,31.58120503042558,-8.466094023126615,-10.80795657767324,261.52333163374107,-163.0859375,-36.62109375,-35.64453125,-122.0703125
37.0837379005734,0.9716029079349069,-0.3253877211487007,-32.26594559702357,-74.02524745751322,-5.094023013036017,5.62067320209818,9.895688408723604,31.081075233388134,-1.42718665394686,-5.775090564646226,6.627985856870331,-246.8271647004592,-19.964906629602943,-23.05014597551949,-96.68772013735533,-117.21196759040363,-6.486721000975105,-4.003200062617659,146.76288360278258,-916.50390625,-35.64453125,-28.80859375,-923.828125
38.34526885059407,0.636484377201233,0.08293177873077819,-29.96250674153286,-73.30646255079996,-5.532107057513903,5.94753532867641,17.972097899339484,18.01459210289126,-1.8510801255682234,-5.967855802497111,-13.632533725651822,-202.1843978225704,-13.056015648879473,-15.229947034979189,1.7992735205634012,-228.7939297346391,0.5691907235716528,5.679838080174359,-103.7074448829584,-118.65234375,-53.22265625,-63.4765625,-173.33984375
39.44327591282861,0.3078345546264184,0.4666941754877861,-27.557933395043037,-70.94770234534126,-5.857695960808061,6.192502334494703,25.66200425475599,3.980814673903191,-2.119444728616289,-5.681206067990468,-32.369867614278824,-105.2291541484732,-3.297764076491951,-4.917835962297082,75.5774145033006,-152.35796415133822,7.8780137397271846,11.80449743488768,-234.85624010454936,-1000.0,-69.3359375,-63.96484375,-1000.0
40.349354125876964,-0.011919878789739007,0.8249398932619548,-25.060518886348863,-67.0562147938644,-6.070149339074018,6.3506088385597055,32.64403204102165,-10.13124120940083,-2.22624372957778,-4.9793679583764385,-48.465157094413634,13.031598744448194,5.974401244993744,4.764268416124486,121.27241157450928,92.32838879546281,9.559633518438918,9.8978918066465,-124.65587348551128,-347.65625,-47.8515625,-7.32421875,-301.26953125
41.032457655134735,-0.32075396690456354,1.156967595680242,-22.48473316183797,-61.78582202330474,-6.172096586801627,6.418066056099888,38.60509902211174,-23.468744890146723,-2.181107513463736,-3.955552783258183,-60.995677781184746,118.62802668478852,11.91150710865286,11.605595543378021,144.50861395787746,298.4427882454283,4.0092707378320585,1.1439517364150364,98.13070987441591,-884.27734375,-31.25,4.8828125,-869.62890625
41.46058275332076,-0.61684441828651,1.4628381591473572,-19.849273369143454,-55.32540624568793,-6.168478895566927,6.39402495655441,43.261222379986776,-35.23369678012262,-2.003904619485803,-2.7159067086970596,-69.24146276846231,185.5578789341309,13.368790559500743,14.976296684275315,152.345853773451,264.6441707648936,-4.1727981860856636,-8.021377001369517,200.83426510222475,223.6328125,-48.33984375,-48.828125,207.03125
41.60489504701407,-0.8984204989797833,1.7433430943570687,-17.173290453156866,-47.87932875479206,-6.065751048570198,6.280470780966621,46.38211503405196,-44.67930559535727,-1.7197938987301689,-1.3704349035560033,-72.67521667438835,204.03044364704067,11.060578804257931,15.138784793462392,149.0360919341092,1.7642296179971357,-8.293642507761852,-11.131764842148021,90.02062762547067,-1000.0,-63.4765625,-92.7734375,-1000.0
41.44093391039501,-1.1638786849301732,1.9992716925500909,-14.475532885093465,-39.65778556406456,-5.871928211017765,6.079862895559649,47.80340193670687,-51.15151704398208,-1.357607966825665,-0.032235626654823,-70.99467149518581,178.1013604319319,6.6833046011410735,12.189880508765238,132.34219629939332,-266.4458447518449,-5.730925030493484,-6.835713350355538,-106.01877202390294,-867.67578125,-42.96875,-72.265625,-772.94921875
40.94671311309989,-1.4118197943068505,2.230874228750759,-11.775760661700842,-30.877418438218818,-5.596364549993657,5.793564302913346,47.42856347305527,-54.16867301313041,-0.9474811854617278,1.186686689541786,-64.18065342482477,118.50008668200854,2.043412115236438,6.306990468869072,95.02910823231088,-310.3891783961772,0.2799515199229414,1.1111054584953475,-183.16336365238976,721.6796875,-2.9296875,-20.01953125,826.66015625
40.108566525969145,-1.6407247922596055,2.4381533674525193,-9.088218423528108,-21.73799842388346,-5.2484132070556875,5.423049477592367,45.25249964702047,-53.408187994215965,-0.5150193565609754,2.1894864900169266,-52.45850102477707,44.242982741944324,-1.3341377710505293,-1.0609680463564055,38.05703077529016,-99.92183665630954,4.509069821273606,7.791504525825088,-66.83427500352522,447.265625,-17.578125,-24.4140625,388.671875
38.931200207995246,-1.8486560239786978,2.6214266021926025,-6.4120381267712485,-12.388838098526644,-4.8362998315874695,4.9719255624655965,41.388866208279715,-48.65756330473783,-0.07755284099934835,2.909177623390333,-36.23492253703591,-19.31350395774133,-2.6387604367774498,-7.1222660492250505,-23.64938583223967,176.69624970599173,4.431296465797762,9.961556416882011,121.5696381888628,-1000.0,-52.24609375,-72.75390625,-1000.0
37.43346478417773,-2.0334596938982625,2.781340478130038,-3.7365964388095545,-2.9442738834312325,-4.3677185333212085,4.446067001767507,36.043770080360865,-39.94212830610433,0.3521749815670042,3.3128250189468074,-16.213435668741162,-60.74324401635457,-2.33199639617018,-9.453795600452636,-78.94457079246546,281.23041000831205,1.3430064058921511,6.332362576535667,186.0748608297744,-1000.0,-51.7578125,-62.5,-1000.0
35.63431842426399,-2.193243834323575,2.9185670429527555,-1.0557325890122478,6.469714313325863,-3.851301632886837,3.8526736674520694,29.459376762511383,-27.730410731636866,0.7591650445521338,3.3985081415327127,6.4318928706296115,-93.28425044500632,-1.9545165045047725,-7.618970955768469,-132.3535200908366,136.66444620560694,-1.6991218634264669,-1.920448156569215,54.00597390507134,138.18359375,-51.7578125,-12.6953125,226.07421875
33.55186574818438,-2.3266504668204844,3.033936863461989,1.6319477088661436,15.713037437807976,-3.297327202596693,3.200687727586127,21.902558731804206,-12.918057710643318,1.1231902366898159,3.1944859176188225,30.119781144055448,-131.00431241852422,-2.9182654086476285,-3.033834813602477,-184.92734997689226,-102.23876884514878,-2.3831937462916755,-10.033910501243463,-139.11139905968236,945.80078125,-53.22265625,-11.23046875,838.37890625
31.215717820047317,-2.4328958066328052,3.128820023264694,4.335249107951592,24.67144064874895,-2.7175761336647457,2.501870563273497,13.691793385311131,3.3861009298448397,1.4201867230694691,2.757905024472208,53.115693246560575,-162.2806671075664,-5.3365107472586235,2.1127335697676917,-215.11239162677612,-201.6171330563514,-0.5646357708987653,-11.628712394341674,-184.78137786787332,-517.578125,-61.03515625,-80.078125,-682.6171875
28.67005621435949,-2.5117910037133293,3.2049159716463893,7.072332666560312,33.264317521770145,-2.1250431532578538,1.7698448673886893,5.188153767306649,19.973138650114095,1.6250904042397702,2.1637401183911082,73.67597390693409,-161.56203554197236,-7.898178308623228,5.488890591851506,-196.00093103186953,-88.28858678663866,1.7753593679045356,-4.398448660813641,-32.29380349176059,-1000.0,-66.40625,-100.09765625,-1000.0
25.96147275536713,-2.56376726246861,3.2635371931223935,9.858680482514226,41.4037727966904,-1.5335926935382933,1.0175408855960462,-3.2586586267974353,35.4888976897874,1.7153459500273156,1.487594381162719,90.04831114659096,-121.30896978475442,-8.718830121361552,5.1832544247723,-126.33453474827253,82.42610101023129,2.129354256136073,6.552005932137177,148.6623242807098,-137.20703125,-48.828125,-59.08203125,-95.703125
23.12932515469867,-2.5897460243039143,3.305385674372023,12.699422683506414,48.965117721695115,-0.9570862443645943,0.25636510418412356,-11.34701943836919,48.46494310744931,1.6761990487918876,0.7963790146251051,100.56211148908805,-58.715172894057694,-6.421151381805417,0.9764336802218714,-32.06111536874381,114.442979095758,-0.22811471338093015,12.705734039268757,160.1360303530921,-821.2890625,-28.80859375,-11.23046875,-813.96484375
20.206865257064184,-2.5907969820180012,3.331166228184382,15.592095459969704,55.795406560285485,-0.40788507970542537,-0.5019184573778114,-18.82322610736448,57.51173164973584,1.5071881817214063,0.15047573590693664,103.86015935656334,4.191644371987925,-0.8690099249157692,-4.768151252617916,57.047984781701835,-5.7562715586029976,-3.2676961151213533,9.670649409874189,-0.6473146659715461,318.359375,-25.87890625,-14.16015625,248.53515625
17.225480498456037,-2.5678233708957197,3.342253996589855,18.53104038201478,61.73367521641969,0.10441016058077514,-1.2432987119605075,-25.474037412822167,61.545955392012,1.225798185210521,-0.3936389288359965,99.12688447801874,56.986236011019194,6.551006997189668,-8.27837791022958,124.50896774420748,-110.31175270568143,-3.933736604370085,0.2829295210864518,-147.17246666238972,-1000.0,-45.8984375,-51.7578125,-1000.0
14.215164377057814,-2.521525119115669,3.3407113557175196,21.507897493636456,66.6198097359445,0.5731548312782603,-1.951917152214565,-31.130098596708983,59.94033691473246,0.8650809928251266,-0.7889135876205016,86.21854432387478,99.50379057886114,13.187328698464075,-7.100481433299161,166.63983541670228,-60.74196584224143,-1.149431485262834,-8.829451506346054,-120.89367458395324,-399.4140625,-34.66796875,-43.45703125,-339.84375
11.200923041961767,-2.452523183605509,3.3289611438983107,24.508927221522047,70.29138504984512,0.994207457142712,-2.6116587750478595,-35.67726012696603,52.58050377545871,0.4674345336732561,-1.0062865679562727,65.69322080207851,131.4252508841796,16.144510416138857,-1.850426087860831,183.77422000987696,87.83490245744134,3.0335302539014157,-12.286646509025166,36.43226355797008,-850.5859375,-33.69140625,-6.8359375,-833.984375
8.201347775563544,-2.361440153852871,3.3097073674459114,27.514539666961998,72.58865203181442,1.365529874129453,-3.2069555234128293,-39.05816124269393,39.89747236782077,0.078022106135352,-1.0381055757411184,38.80026898978311,148.8381853571764,13.73152907151966,4.459649287800912,176.79698215759169,156.4397227766063,5.305272498806523,-8.325857001194462,143.2176254015813,268.06640625,-55.17578125,-48.33984375,253.90625
5.23224922181941,-2.249008127665174,3.2858627709059056,30.50306207657688,73.37583023808607,1.686645596494091,-3.7235488627000706,-41.25839122099112,22.897676498023323,-0.26204071332193213,-0.8989515021951596,7.445253184847794,149.06053749370142,6.380397078276205,8.354474399699152,149.6472971628251,53.0389039879282,3.9246122976319135,0.951648559938739,85.93318234864276,-1000.0,-51.26953125,-93.75,-1000.0
2.3079097470875887,-2.116217450855652,3.2600594568519363,33.45210088346441,72.55356778314821,1.9579569607277758,-4.15047489523676,-42.29944849587219,3.0943275057921475,-0.5219048868462287,-0.6282235866424817,-25.949627227342457,130.918369967227,-3.4624062131667515,7.545243057738286,107.36006558451778,-123.47707166491791,-0.0578145909610954,10.229058203102628,-65.39654138649966,-924.31640625,-41.015625,-64.94140625,-765.625
-0.5616269048501671,-1.964295817308382,3.2342554776987607,36.33709204879659,70.05752799622319,2.1806163953774615,-4.481501890818516,-42.239713298702945,-17.665963662813308,-0.6835358366094978,-0.2876979955112407,-58.6767697137678,92.42141504133821,-12.233174889772407,2.126171764536199,53.05382520767916,-191.86185969108058,-3.820684318769213,13.524619020958045,-145.20210435654946,619.140625,-25.87890625,-20.5078125,819.82421875
-3.3654178767336367,-1.7944739382298671,3.2100272013967794,39.13802717599215,65.8803083623767,2.357055221816356,-4.714157402027526,-41.14907970041972,-37.32823863485741,-0.7403105428792313,0.0517554605336509,-87.92000209199993,38.736418713987945,-16.60751105056955,-5.004882651388898,-4.976642280660327,-76.04210362864434,-4.959964296995903,8.27108640326613,-68.19781771789391,562.5,-20.99609375,-28.80859375,536.62109375
-6.080818376970065,-1.6077905859641222,3.189053524864921,41.84996592286191,60.10708604314246,2.4913135687882972,-4.848075703673307,-39.07389381741773,-53.734922842102186,-0.6952147257992812,0.3257198329675022,-110.92668840090114,-13.466962604545273,-14.96477387097779,-9.55840704755721,-51.26745170933694,118.48310901416914,-3.1616529487523173,-2.5500842729079287,86.138554280836,-938.96484375,-54.19921875,-71.2890625,-976.5625
-8.676140252887903,-1.405251941477464,3.1730441156266824,44.47839324641565,52.903069291038854,2.5881904557816604,-4.885107860738261,-36.05305565848702,-64.92000742780799,-0.5622836368236316,0.48348210820642695,-125.37054218183344,-53.83028841375617,-8.34607097796407,-8.689243449114283,-81.58048434753171,202.72038439202962,-0.13417299597844942,-12.34232546435765,152.78827870519493,-1000.0,-87.890625,-75.68359375,-1000.0
-11.124460572634153,-1.188297303173301,3.163338605495044,47.024564914858615,44.46352607038214,2.6514842682302673,-4.830376707471879,-32.16514195090063,-69.50216882214802,-0.3697719626714938,0.48974024484843065,-129.77427867663607,-92.22785238938597,-0.1040678554794882,-2.860370140821082,-112.46285360058363,89.50049147347418,2.1248346872947814,-14.965513731643217,53.165543435002945,1.953125,-54.19921875,-33.69140625,206.54296875
-13.4058130045356,-0.9590235655939805,3.1609393023490973,49.48130804881714,35.001609323363766,2.683169103244237,-4.691802892968941,-27.538639715460434,-66.85791049316255,-0.1579827096722686,0.32966543227159806,-123.69697792886207,-139.61139452219666,6.020997022884059,4.883064559467379,-158.75997756805148,-107.86529384939341,3.1157922335483206,-8.132716486519067,-109.9900278214551,958.49609375,-35.64453125,-2.44140625,-995.60546875
-15.495216456032486,-0.7199473624342718,3.1670000130254343,51.83689602662729,24.779976273732903,2.6841758551708534,-4.4781496888615555,-22.334077053935797,-57.051386705187646,0.02988015964700984,0.016161813692112434,-107.71065542058018,-182.38114531542627,8.111050893376389,11.095518170889505,-210.16593972291378,-183.50139120734775,3.589344317189585,4.836324162635528,-155.03630528341694,-427.734375,-78.61328125,-51.7578125,-412.59765625
-17.35822938690579,-0.4738067729938262,3.182974268370907,54.074916850708135,14.11460876484053,2.6550844298612852,-4.19823926490199,-16.73785818383139,-40.79753642864062,0.15621731398355704,-0.4110836427327637,-83.32049932127516,-192.12787323678197,6.7122216135938615,13.385379108384871,-236.16925175460517,-62.15936230365022,3.4763177479880363,15.724669275973131,-24.548915050923224,-1000.0,-60.546875,-86.42578125,-1000.0
-18.96198177498851,-0.22351566809147844,3.210159769350654,56.17270773410573,3.327627637300242,2.59633844608731,-3.8621140205269815,-10.95940501591289,-19.535433127669815,0.19452804346557728,-0.8966697325388304,-52.8076009775461,-157.5608243677949,3.89642129906513,10.768448824301723,-206.96246206716532,112.92077142837363,1.2935193675778032,16.163760968776423,143.2461824251767,-255.37109375,-0.48828125,-38.57421875,-173.828125
-20.28538088808081,0.0282600077696957,3.2494391632680086,58.103394642397994,-7.2949418960694805,2.5096240315069367,-3.4814799719191996,-5.215931041445024,4.608827134391519,0.13708659798062772,-1.3792273516411604,-18.957678224255535,-93.84797704251731,2.0558842347152284,4.009716089514347,-111.16115078837956,143.89687337630647,-3.341435055270146,4.773908442470646,162.00826423349025,-875.9765625,12.20703125,-5.859375,-841.796875
-21.31899341010055,0.27979133020101055,3.3016338156520306,59.839821287567915,-17.5091665403345,2.3999025816353727,-3.068158060991476,0.2883347125129396,29.07179457867984,0.001755711634531721,-1.79445561671328,15.265925007210255,-23.997124977393607,2.760134771767006,-4.208623530140736,35.75601970124846,5.634430567358665,-7.604342114287584,-10.140606799613307,0.6419879103589311,125.9765625,-16.11328125,-50.29296875,125.0
-22.060945129423075,0.530468135277689,3.367748110994885,61.357810974515374,-27.10454036188676,2.2755511380688698,-2.632972561294986,5.379127566226191,51.196681642270626,-0.1717540719239473,-2.0802288677957526,47.03593111431402,39.159383611274954,5.588859190213217,-10.484891488566065,194.19924845306986,-132.12765448096363,-7.470354795871184,-17.02423192817343,-179.2863629815772,-1000.0,-44.43359375,-67.3828125,-1000.0
-22.515713736184807,0.7802894285175558,3.4486981654361553,62.63651144383273,-35.903447613596576,2.1461504396392574,-2.1863562331880457,9.917735117258706,68.54651437028949,-0.3363548546323956,-2.187471447884811,73.9059895941005,93.86649198145028,7.9129389155157,-12.67582870886944,313.01784564979096,-107.12494588676923,-1.8805908344369746,-11.202501080804971,-190.51682163552798,-597.65625,-57.6171875,-30.76171875,-403.80859375
-22.693601563642773,1.0291831956151252,3.545148280047022,63.655825475941214,-43.761666716681546,2.019803146895872,-1.738603814708773,13.79569273844055,79.1783393416701,-0.4533865305021463,-2.0877772014268037,93.97194455849777,141.74876837123858,6.454057902418711,-10.711320235397208,348.46260733898674,50.95202125580859,5.807006905527036,1.6145712678673116,-12.722046465860672,973.14453125,-65.91796875,-12.20703125,-883.7890625
-22.60221720812599,1.2765507927873168,3.657776891723748,64.39599648519987,-50.54335900487728,1.9013929035457786,-1.2987833424431583,16.935262732212596,81.94084631856757,-0.5026495925147652,-1.7736583183656616,106.00044913540601,185.72822395387297,-0.2755729057812921,-5.951086343545826,285.3409544942096,161.86010052763294,10.476391551055347,11.282207292541216,188.74755028118415,345.21484375,-81.0546875,-37.59765625,337.40234375
-22.237048964538005,1.5210399283069906,3.7873938533342746,64.84164420678339,-56.09559017022654,1.7918470093719305,-0.8742254713326435,19.30240212067709,76.66816130956967,-0.48563889675117256,-1.2586275043341497,109.53778177761434,224.64903346895255,-10.513063387171103,-0.39814140977548845,148.11685748061598,96.76318490531017,9.045000570031707,11.727195863939135,227.4594181519589,-1000.0,-77.63671875,-79.58984375,-1000.0
-21.588177803575967,1.7604930993038426,3.934530965130762,64.98334411073091,-60.2764317668904,1.6882232296729889,-0.4717412175816739,20.909428230175525,64.06608131926305,-0.4228060080980632,-0.5809263552612781,104.90818772358483,238.09538202354037,-19.800039669605127,3.7624169952806303,-11.845157617044185,-88.88103043700934,2.227949071601469,4.50019522689315,68.93557673112306,-951.171875,-73.2421875,-71.2890625,-747.55859375
-20.654258467621442,1.992128045621823,4.099014867983514,64.81553975838945,-63.00431120774381,1.5847383627750462,-0.09881420594192453,21.804107424768226,45.44253281078038,-0.3453837254194754,0.1962278021234537,93.09833117920807,190.94589280034427,-23.14837378708399,4.973519788008154,-142.70716020229486,-210.77418385502932,-6.2374475392105655,-3.880544197211087,-147.11412599523064,513.18359375,-42.48046875,-25.87890625,794.921875
-19.44087420916731,2.21300968765205,4.280121616455035,64.34254289586342,-64.25387932393039,1.4747993320831274,0.2371511295925363,22.082694180969284,22.584349281393063,-0.2831902772187464,0.9944843463983574,75.6773970634859,70.84324929241777,-17.561571363700818,3.3957812718943075,-207.24835718337098,-130.08574785581578,-11.67679341838089,-7.382009716139159,-235.657282560809,801.26953125,-9.765625,-25.87890625,818.84765625
-17.94760529264859,2.4206847493199803,4.477044380785643,63.589827510230776,-64.01531182562739,1.3534528504376704,0.5305347898405162,21.915878770705326,-2.2834904783841634,-0.2524725278453891,1.7348969478608052,54.714059723332575,-86.02616000732978,-3.7124877640616845,0.9683149566898737,-190.58502781850186,104.56638941225887,-10.821175450498945,-4.778629648503505,-128.3272091707414,-719.23828125,-24.90234375,-55.17578125,-701.171875
-16.16757157957916,2.613607914813719,4.68903193552195,62.60058221035713,-62.29481836955407,1.2189359528594246,0.778021398330768,21.5235316724896,-26.736160618793306,-0.24999107632813705,2.347649671155976,32.47201318325143,-219.23335788391762,13.8640031299296,-0.07894434624380206,-115.03561917524134,276.1169836995097,-3.7415531930576087,0.004186282413989054,67.54462644783965,-1000.0,-21.484375,-41.9921875,-1000.0
-14.10054826726954,2.7911643801099077,4.915288777522913,61.41947575937809,-59.15705657505936,1.0726892180198682,0.9782547264659917,21.108882740516574,-48.546275638253064,-0.25577485509072195,2.7774287162425666,10.973718168450423,-287.8216719693578,28.310278738821143,1.1763802548151623,-38.41878717559575,195.02250251254662,5.771303915772982,2.0481224360111017,175.580838892666,-42.48046875,-25.390625,-4.8828125,147.94921875
